time	sig 0	sig 1
(sec)	(mV)	(mV)
  0.000	  0.255	  0.185
  0.008	  0.245	  0.175
  0.016	  0.235	  0.165
  0.023	  0.235	  0.165
  0.031	  0.235	  0.165
  0.039	  0.225	  0.155
  0.047	  0.215	  0.155
  0.055	  0.215	  0.145
  0.062	  0.205	  0.145
  0.070	  0.205	  0.145
  0.078	  0.195	  0.135
  0.086	  0.195	  0.125
  0.094	  0.185	  0.125
  0.102	  0.175	  0.125
  0.109	  0.165	  0.115
  0.117	  0.175	  0.105
  0.125	  0.165	  0.105
  0.133	  0.155	  0.095
  0.141	  0.145	  0.085
  0.148	  0.125	  0.075
  0.156	 -0.475	 -0.335
  0.164	 -0.685	 -0.645
  0.172	 -0.645	 -0.625
  0.180	 -0.635	 -0.615
  0.188	 -0.635	 -0.615
  0.195	 -0.635	 -0.605
  0.203	 -0.625	 -0.605
  0.211	 -0.605	 -0.595
  0.219	 -0.605	 -0.585
  0.227	 -0.595	 -0.585
  0.234	 -0.595	 -0.585
  0.242	 -0.575	 -0.565
  0.250	 -0.565	 -0.565
  0.258	 -0.565	 -0.555
  0.266	 -0.555	 -0.555
  0.273	 -0.545	 -0.535
  0.281	 -0.535	 -0.535
  0.289	 -0.525	 -0.525
  0.297	 -0.525	 -0.525
  0.305	 -0.515	 -0.515
  0.312	 -0.505	 -0.505
  0.320	 -0.505	 -0.495
  0.328	 -0.495	 -0.495
  0.336	 -0.485	 -0.485
  0.344	 -0.475	 -0.475
  0.352	 -0.465	 -0.465
  0.359	 -0.465	 -0.465
  0.367	 -0.455	 -0.465
  0.375	 -0.455	 -0.445
  0.383	 -0.445	 -0.445
  0.391	 -0.435	 -0.445
  0.398	 -0.425	 -0.425
  0.406	 -0.425	 -0.425
  0.414	 -0.415	 -0.415
  0.422	 -0.405	 -0.415
  0.430	 -0.395	 -0.405
  0.438	 -0.395	 -0.405
  0.445	 -0.395	 -0.395
  0.453	 -0.385	 -0.395
  0.461	 -0.375	 -0.385
  0.469	 -0.375	 -0.375
  0.477	 -0.365	 -0.375
  0.484	 -0.365	 -0.375
  0.492	 -0.355	 -0.365
  0.500	 -0.355	 -0.355
  0.508	 -0.345	 -0.345
  0.516	 -0.345	 -0.345
  0.523	 -0.335	 -0.345
  0.531	 -0.325	 -0.335
  0.539	 -0.325	 -0.325
  0.547	 -0.315	 -0.325
  0.555	 -0.315	 -0.325
  0.562	 -0.305	 -0.315
  0.570	 -0.305	 -0.305
  0.578	 -0.305	 -0.305
  0.586	 -0.295	 -0.305
  0.594	 -0.285	 -0.295
  0.602	 -0.285	 -0.285
  0.609	 -0.275	 -0.285
  0.617	 -0.275	 -0.285
  0.625	 -0.265	 -0.275
  0.633	 -0.255	 -0.265
  0.641	 -0.235	 -0.255
  0.648	 -0.265	 -0.275
  0.656	  0.555	  0.455
  0.664	  0.555	  0.475
  0.672	  0.535	  0.455
  0.680	  0.535	  0.445
  0.688	  0.525	  0.445
  0.695	  0.515	  0.445
  0.703	  0.505	  0.425
  0.711	  0.505	  0.425
  0.719	  0.495	  0.415
  0.727	  0.485	  0.415
  0.734	  0.475	  0.405
  0.742	  0.465	  0.395
  0.750	  0.465	  0.395
  0.758	  0.455	  0.385
  0.766	  0.445	  0.375
  0.773	  0.435	  0.365
  0.781	  0.425	  0.365
  0.789	  0.425	  0.355
  0.797	  0.415	  0.345
  0.805	  0.415	  0.345
  0.812	  0.405	  0.345
  0.820	  0.395	  0.335
  0.828	  0.385	  0.325
  0.836	  0.375	  0.315
  0.844	  0.375	  0.315
  0.852	  0.365	  0.315
  0.859	  0.355	  0.295
  0.867	  0.345	  0.295
  0.875	  0.345	  0.295
  0.883	  0.335	  0.285
  0.891	  0.325	  0.275
  0.898	  0.325	  0.275
  0.906	  0.315	  0.265
  0.914	  0.315	  0.265
  0.922	  0.305	  0.255
  0.930	  0.295	  0.255
  0.938	  0.295	  0.245
  0.945	  0.285	  0.235
  0.953	  0.285	  0.235
  0.961	  0.275	  0.225
  0.969	  0.275	  0.225
  0.977	  0.265	  0.215
  0.984	  0.265	  0.215
  0.992	  0.255	  0.205
  1.000	  0.255	  0.205
  1.008	  0.245	  0.195
  1.016	  0.235	  0.185
  1.023	  0.235	  0.185
  1.031	  0.225	  0.185
  1.039	  0.225	  0.175
  1.047	  0.225	  0.175
  1.055	  0.215	  0.165
  1.062	  0.205	  0.165
  1.070	  0.205	  0.165
  1.078	  0.205	  0.155
  1.086	  0.195	  0.155
  1.094	  0.185	  0.145
  1.102	  0.185	  0.145
  1.109	  0.185	  0.135
  1.117	  0.175	  0.135
  1.125	  0.165	  0.125
  1.133	  0.165	  0.125
  1.141	  0.145	  0.115
  1.148	  0.155	  0.115
  1.156	 -0.665	 -0.555
  1.164	 -0.655	 -0.605
  1.172	 -0.635	 -0.595
  1.180	 -0.625	 -0.585
  1.188	 -0.615	 -0.575
  1.195	 -0.615	 -0.575
  1.203	 -0.605	 -0.565
  1.211	 -0.595	 -0.555
  1.219	 -0.595	 -0.555
  1.227	 -0.585	 -0.545
  1.234	 -0.575	 -0.535
  1.242	 -0.565	 -0.535
  1.250	 -0.565	 -0.515
  1.258	 -0.555	 -0.515
  1.266	 -0.545	 -0.515
  1.273	 -0.535	 -0.505
  1.281	 -0.535	 -0.495
  1.289	 -0.515	 -0.485
  1.297	 -0.515	 -0.485
  1.305	 -0.505	 -0.475
  1.312	 -0.505	 -0.465
  1.320	 -0.485	 -0.465
  1.328	 -0.485	 -0.465
  1.336	 -0.475	 -0.455
  1.344	 -0.475	 -0.445
  1.352	 -0.465	 -0.435
  1.359	 -0.455	 -0.435
  1.367	 -0.445	 -0.425
  1.375	 -0.445	 -0.415
  1.383	 -0.435	 -0.405
  1.391	 -0.425	 -0.415
  1.398	 -0.415	 -0.405
  1.406	 -0.415	 -0.395
  1.414	 -0.405	 -0.385
  1.422	 -0.405	 -0.385
  1.430	 -0.395	 -0.375
  1.438	 -0.385	 -0.375
  1.445	 -0.385	 -0.365
  1.453	 -0.375	 -0.365
  1.461	 -0.375	 -0.355
  1.469	 -0.365	 -0.345
  1.477	 -0.355	 -0.345
  1.484	 -0.355	 -0.345
  1.492	 -0.345	 -0.335
  1.500	 -0.345	 -0.325
  1.508	 -0.335	 -0.325
  1.516	 -0.335	 -0.325
  1.523	 -0.325	 -0.315
  1.531	 -0.315	 -0.305
  1.539	 -0.315	 -0.305
  1.547	 -0.305	 -0.305
  1.555	 -0.295	 -0.295
  1.562	 -0.295	 -0.285
  1.570	 -0.285	 -0.285
  1.578	 -0.285	 -0.285
  1.586	 -0.275	 -0.275
  1.594	 -0.265	 -0.265
  1.602	 -0.265	 -0.265
  1.609	 -0.265	 -0.265
  1.617	 -0.255	 -0.255
  1.625	 -0.245	 -0.245
  1.633	 -0.245	 -0.235
  1.641	 -0.235	 -0.235
  1.648	 -0.215	 -0.225
  1.656	  0.475	  0.345
  1.664	  0.575	  0.505
  1.672	  0.555	  0.475
  1.680	  0.545	  0.475
  1.688	  0.545	  0.465
  1.695	  0.535	  0.465
  1.703	  0.525	  0.455
  1.711	  0.515	  0.445
  1.719	  0.515	  0.445
  1.727	  0.505	  0.435
  1.734	  0.495	  0.425
  1.742	  0.495	  0.415
  1.750	  0.485	  0.415
  1.758	  0.475	  0.405
  1.766	  0.465	  0.385
  1.773	  0.465	  0.385
  1.781	  0.455	  0.385
  1.789	  0.445	  0.375
  1.797	  0.435	  0.365
  1.805	  0.435	  0.355
  1.812	  0.425	  0.355
  1.820	  0.415	  0.345
  1.828	  0.415	  0.335
  1.836	  0.405	  0.335
  1.844	  0.395	  0.325
  1.852	  0.385	  0.315
  1.859	  0.385	  0.315
  1.867	  0.375	  0.305
  1.875	  0.365	  0.305
  1.883	  0.365	  0.305
  1.891	  0.355	  0.295
  1.898	  0.345	  0.285
  1.906	  0.345	  0.285
  1.914	  0.335	  0.275
  1.922	  0.335	  0.265
  1.930	  0.325	  0.265
  1.938	  0.325	  0.265
  1.945	  0.315	  0.265
  1.953	  0.315	  0.255
  1.961	  0.305	  0.245
  1.969	  0.295	  0.245
  1.977	  0.295	  0.235
  1.984	  0.285	  0.225
  1.992	  0.285	  0.225
  2.000	  0.275	  0.225
  2.008	  0.275	  0.215
  2.016	  0.265	  0.215
  2.023	  0.265	  0.205
  2.031	  0.255	  0.205
  2.039	  0.255	  0.205
  2.047	  0.245	  0.195
  2.055	  0.235	  0.185
  2.062	  0.235	  0.185
  2.070	  0.225	  0.185
  2.078	  0.225	  0.175
  2.086	  0.215	  0.175
  2.094	  0.215	  0.165
  2.102	  0.205	  0.165
  2.109	  0.205	  0.155
  2.117	  0.195	  0.155
  2.125	  0.195	  0.145
  2.133	  0.185	  0.145
  2.141	  0.165	  0.135
  2.148	  0.155	  0.115
  2.156	 -0.435	 -0.335
  2.164	 -0.645	 -0.605
  2.172	 -0.615	 -0.585
  2.180	 -0.605	 -0.575
  2.188	 -0.605	 -0.565
  2.195	 -0.595	 -0.565
  2.203	 -0.595	 -0.565
  2.211	 -0.585	 -0.555
  2.219	 -0.575	 -0.545
  2.227	 -0.565	 -0.535
  2.234	 -0.555	 -0.535
  2.242	 -0.545	 -0.525
  2.250	 -0.535	 -0.515
  2.258	 -0.535	 -0.515
  2.266	 -0.525	 -0.505
  2.273	 -0.505	 -0.495
  2.281	 -0.505	 -0.485
  2.289	 -0.495	 -0.485
  2.297	 -0.485	 -0.475
  2.305	 -0.475	 -0.475
  2.312	 -0.475	 -0.465
  2.320	 -0.465	 -0.455
  2.328	 -0.465	 -0.455
  2.336	 -0.455	 -0.445
  2.344	 -0.445	 -0.435
  2.352	 -0.435	 -0.425
  2.359	 -0.425	 -0.425
  2.367	 -0.425	 -0.425
  2.375	 -0.415	 -0.415
  2.383	 -0.405	 -0.405
  2.391	 -0.405	 -0.405
  2.398	 -0.395	 -0.405
  2.406	 -0.385	 -0.395
  2.414	 -0.385	 -0.385
  2.422	 -0.375	 -0.385
  2.430	 -0.375	 -0.375
  2.438	 -0.365	 -0.365
  2.445	 -0.355	 -0.365
  2.453	 -0.355	 -0.365
  2.461	 -0.345	 -0.355
  2.469	 -0.335	 -0.345
  2.477	 -0.335	 -0.345
  2.484	 -0.335	 -0.335
  2.492	 -0.325	 -0.335
  2.500	 -0.315	 -0.325
  2.508	 -0.315	 -0.325
  2.516	 -0.305	 -0.325
  2.523	 -0.295	 -0.315
  2.531	 -0.295	 -0.305
  2.539	 -0.285	 -0.305
  2.547	 -0.285	 -0.305
  2.555	 -0.275	 -0.295
  2.562	 -0.265	 -0.285
  2.570	 -0.265	 -0.285
  2.578	 -0.265	 -0.285
  2.586	 -0.255	 -0.275
  2.594	 -0.255	 -0.275
  2.602	 -0.245	 -0.265
  2.609	 -0.235	 -0.265
  2.617	 -0.225	 -0.255
  2.625	 -0.225	 -0.245
  2.633	 -0.215	 -0.245
  2.641	 -0.195	 -0.235
  2.648	 -0.215	 -0.255
  2.656	  0.615	  0.465
  2.664	  0.605	  0.495
  2.672	  0.585	  0.475
  2.680	  0.575	  0.465
  2.688	  0.565	  0.465
  2.695	  0.565	  0.455
  2.703	  0.555	  0.455
  2.711	  0.545	  0.445
  2.719	  0.535	  0.435
  2.727	  0.535	  0.435
  2.734	  0.525	  0.425
  2.742	  0.515	  0.415
  2.750	  0.515	  0.405
  2.758	  0.505	  0.395
  2.766	  0.495	  0.385
  2.773	  0.485	  0.385
  2.781	  0.485	  0.375
  2.789	  0.475	  0.375
  2.797	  0.465	  0.365
  2.805	  0.455	  0.355
  2.812	  0.445	  0.355
  2.820	  0.445	  0.345
  2.828	  0.435	  0.335
  2.836	  0.425	  0.325
  2.844	  0.415	  0.325
  2.852	  0.415	  0.315
  2.859	  0.405	  0.305
  2.867	  0.395	  0.295
  2.875	  0.385	  0.295
  2.883	  0.385	  0.295
  2.891	  0.375	  0.285
  2.898	  0.365	  0.275
  2.906	  0.365	  0.275
  2.914	  0.355	  0.265
  2.922	  0.345	  0.255
  2.930	  0.345	  0.255
  2.938	  0.335	  0.255
  2.945	  0.335	  0.245
  2.953	  0.325	  0.235
  2.961	  0.325	  0.225
  2.969	  0.315	  0.225
  2.977	  0.315	  0.225
  2.984	  0.305	  0.215
  2.992	  0.295	  0.215
  3.000	  0.295	  0.205
  3.008	  0.295	  0.195
  3.016	  0.285	  0.185
  3.023	  0.275	  0.185
  3.031	  0.275	  0.185
  3.039	  0.265	  0.175
  3.047	  0.265	  0.165
  3.055	  0.255	  0.165
  3.062	  0.255	  0.165
  3.070	  0.245	  0.165
  3.078	  0.245	  0.155
  3.086	  0.235	  0.145
  3.094	  0.225	  0.145
  3.102	  0.225	  0.145
  3.109	  0.225	  0.125
  3.117	  0.215	  0.125
  3.125	  0.215	  0.125
  3.133	  0.205	  0.115
  3.141	  0.195	  0.105
  3.148	  0.175	  0.095
  3.156	 -0.475	 -0.495
  3.164	 -0.585	 -0.625
  3.172	 -0.565	 -0.615
  3.180	 -0.555	 -0.605
  3.188	 -0.555	 -0.595
  3.195	 -0.545	 -0.595
  3.203	 -0.545	 -0.585
  3.211	 -0.535	 -0.585
  3.219	 -0.525	 -0.575
  3.227	 -0.515	 -0.565
  3.234	 -0.515	 -0.555
  3.242	 -0.505	 -0.545
  3.250	 -0.505	 -0.545
  3.258	 -0.495	 -0.535
  3.266	 -0.485	 -0.535
  3.273	 -0.485	 -0.515
  3.281	 -0.475	 -0.515
  3.289	 -0.465	 -0.505
  3.297	 -0.455	 -0.505
  3.305	 -0.445	 -0.495
  3.312	 -0.445	 -0.485
  3.320	 -0.435	 -0.485
  3.328	 -0.435	 -0.475
  3.336	 -0.415	 -0.465
  3.344	 -0.415	 -0.465
  3.352	 -0.405	 -0.455
  3.359	 -0.395	 -0.455
  3.367	 -0.395	 -0.445
  3.375	 -0.385	 -0.435
  3.383	 -0.385	 -0.425
  3.391	 -0.375	 -0.425
  3.398	 -0.365	 -0.415
  3.406	 -0.365	 -0.415
  3.414	 -0.355	 -0.405
  3.422	 -0.355	 -0.405
  3.430	 -0.345	 -0.395
  3.438	 -0.335	 -0.385
  3.445	 -0.335	 -0.385
  3.453	 -0.335	 -0.385
  3.461	 -0.325	 -0.375
  3.469	 -0.325	 -0.365
  3.477	 -0.325	 -0.365
  3.484	 -0.315	 -0.355
  3.492	 -0.305	 -0.355
  3.500	 -0.305	 -0.345
  3.508	 -0.295	 -0.345
  3.516	 -0.295	 -0.345
  3.523	 -0.295	 -0.335
  3.531	 -0.285	 -0.325
  3.539	 -0.275	 -0.325
  3.547	 -0.275	 -0.315
  3.555	 -0.275	 -0.315
  3.562	 -0.275	 -0.305
  3.570	 -0.265	 -0.305
  3.578	 -0.255	 -0.305
  3.586	 -0.245	 -0.295
  3.594	 -0.245	 -0.285
  3.602	 -0.245	 -0.275
  3.609	 -0.235	 -0.285
  3.617	 -0.225	 -0.275
  3.625	 -0.215	 -0.265
  3.633	 -0.215	 -0.255
  3.641	 -0.205	 -0.255
  3.648	 -0.195	 -0.235
  3.656	  0.415	  0.255
  3.664	  0.615	  0.495
  3.672	  0.585	  0.465
  3.680	  0.565	  0.465
  3.688	  0.565	  0.455
  3.695	  0.555	  0.455
  3.703	  0.545	  0.445
  3.711	  0.545	  0.435
  3.719	  0.535	  0.425
  3.727	  0.525	  0.425
  3.734	  0.515	  0.415
  3.742	  0.515	  0.405
  3.750	  0.505	  0.395
  3.758	  0.495	  0.395
  3.766	  0.485	  0.385
  3.773	  0.485	  0.375
  3.781	  0.475	  0.375
  3.789	  0.465	  0.375
  3.797	  0.455	  0.355
  3.805	  0.455	  0.355
  3.812	  0.445	  0.355
  3.820	  0.435	  0.345
  3.828	  0.425	  0.335
  3.836	  0.425	  0.335
  3.844	  0.415	  0.325
  3.852	  0.405	  0.325
  3.859	  0.395	  0.305
  3.867	  0.395	  0.305
  3.875	  0.395	  0.295
  3.883	  0.385	  0.295
  3.891	  0.375	  0.285
  3.898	  0.365	  0.285
  3.906	  0.365	  0.275
  3.914	  0.355	  0.275
  3.922	  0.345	  0.265
  3.930	  0.345	  0.255
  3.938	  0.345	  0.255
  3.945	  0.335	  0.245
  3.953	  0.315	  0.235
  3.961	  0.315	  0.235
  3.969	  0.315	  0.235
  3.977	  0.305	  0.235
  3.984	  0.295	  0.225
  3.992	  0.295	  0.215
  4.000	  0.295	  0.215
  4.008	  0.285	  0.205
  4.016	  0.275	  0.195
  4.023	  0.275	  0.195
  4.031	  0.265	  0.195
  4.039	  0.265	  0.185
  4.047	  0.255	  0.185
  4.055	  0.255	  0.175
  4.062	  0.245	  0.175
  4.070	  0.235	  0.175
  4.078	  0.235	  0.165
  4.086	  0.225	  0.165
  4.094	  0.225	  0.155
  4.102	  0.215	  0.155
  4.109	  0.215	  0.145
  4.117	  0.205	  0.145
  4.125	  0.195	  0.135
  4.133	  0.185	  0.135
  4.141	  0.175	  0.115
  4.148	  0.215	  0.165
  4.156	 -0.645	 -0.565
  4.164	 -0.625	 -0.585
  4.172	 -0.605	 -0.575
  4.180	 -0.595	 -0.565
  4.188	 -0.585	 -0.565
  4.195	 -0.585	 -0.555
  4.203	 -0.575	 -0.555
  4.211	 -0.565	 -0.545
  4.219	 -0.565	 -0.535
  4.227	 -0.545	 -0.535
  4.234	 -0.545	 -0.535
  4.242	 -0.535	 -0.525
  4.250	 -0.525	 -0.515
  4.258	 -0.515	 -0.505
  4.266	 -0.515	 -0.505
  4.273	 -0.505	 -0.495
  4.281	 -0.495	 -0.485
  4.289	 -0.495	 -0.485
  4.297	 -0.475	 -0.475
  4.305	 -0.475	 -0.465
  4.312	 -0.465	 -0.465
  4.320	 -0.455	 -0.455
  4.328	 -0.455	 -0.455
  4.336	 -0.445	 -0.445
  4.344	 -0.435	 -0.435
  4.352	 -0.425	 -0.425
  4.359	 -0.415	 -0.425
  4.367	 -0.415	 -0.415
  4.375	 -0.405	 -0.405
  4.383	 -0.405	 -0.405
  4.391	 -0.405	 -0.405
  4.398	 -0.385	 -0.395
  4.406	 -0.385	 -0.385
  4.414	 -0.385	 -0.385
  4.422	 -0.375	 -0.375
  4.430	 -0.365	 -0.365
  4.438	 -0.355	 -0.365
  4.445	 -0.355	 -0.355
  4.453	 -0.345	 -0.355
  4.461	 -0.345	 -0.345
  4.469	 -0.335	 -0.335
  4.477	 -0.335	 -0.335
  4.484	 -0.325	 -0.325
  4.492	 -0.315	 -0.325
  4.500	 -0.305	 -0.315
  4.508	 -0.305	 -0.315
  4.516	 -0.295	 -0.315
  4.523	 -0.285	 -0.305
  4.531	 -0.275	 -0.295
  4.539	 -0.275	 -0.295
  4.547	 -0.265	 -0.285
  4.555	 -0.265	 -0.285
  4.562	 -0.255	 -0.275
  4.570	 -0.255	 -0.275
  4.578	 -0.245	 -0.265
  4.586	 -0.245	 -0.265
  4.594	 -0.235	 -0.255
  4.602	 -0.235	 -0.255
  4.609	 -0.225	 -0.255
  4.617	 -0.225	 -0.245
  4.625	 -0.215	 -0.235
  4.633	 -0.215	 -0.225
  4.641	 -0.205	 -0.225
  4.648	 -0.185	 -0.215
  4.656	  0.445	  0.335
  4.664	  0.605	  0.505
  4.672	  0.575	  0.485
  4.680	  0.575	  0.475
  4.688	  0.565	  0.475
  4.695	  0.565	  0.465
  4.703	  0.555	  0.455
  4.711	  0.545	  0.455
  4.719	  0.535	  0.445
  4.727	  0.525	  0.435
  4.734	  0.525	  0.435
  4.742	  0.515	  0.425
  4.750	  0.495	  0.425
  4.758	  0.495	  0.415
  4.766	  0.485	  0.405
  4.773	  0.475	  0.395
  4.781	  0.465	  0.385
  4.789	  0.465	  0.385
  4.797	  0.455	  0.375
  4.805	  0.445	  0.375
  4.812	  0.435	  0.375
  4.820	  0.425	  0.355
  4.828	  0.415	  0.355
  4.836	  0.415	  0.345
  4.844	  0.405	  0.345
  4.852	  0.395	  0.335
  4.859	  0.385	  0.325
  4.867	  0.385	  0.315
  4.875	  0.375	  0.315
  4.883	  0.375	  0.315
  4.891	  0.355	  0.305
  4.898	  0.355	  0.295
  4.906	  0.345	  0.285
  4.914	  0.345	  0.285
  4.922	  0.335	  0.275
  4.930	  0.335	  0.275
  4.938	  0.325	  0.265
  4.945	  0.315	  0.265
  4.953	  0.315	  0.255
  4.961	  0.305	  0.255
  4.969	  0.295	  0.245
  4.977	  0.295	  0.235
  4.984	  0.285	  0.235
  4.992	  0.285	  0.225
  5.000	  0.275	  0.225
  5.008	  0.275	  0.225
  5.016	  0.265	  0.215
  5.023	  0.265	  0.215
  5.031	  0.255	  0.205
  5.039	  0.255	  0.205
  5.047	  0.245	  0.195
  5.055	  0.245	  0.195
  5.062	  0.235	  0.195
  5.070	  0.235	  0.185
  5.078	  0.225	  0.175
  5.086	  0.225	  0.175
  5.094	  0.215	  0.175
  5.102	  0.215	  0.165
  5.109	  0.205	  0.155
  5.117	  0.205	  0.155
  5.125	  0.195	  0.155
  5.133	  0.185	  0.145
  5.141	  0.185	  0.135
  5.148	  0.165	  0.125
  5.156	 -0.315	 -0.245
  5.164	 -0.645	 -0.595
  5.172	 -0.625	 -0.575
  5.180	 -0.605	 -0.565
  5.188	 -0.595	 -0.565
  5.195	 -0.595	 -0.555
  5.203	 -0.595	 -0.555
  5.211	 -0.585	 -0.545
  5.219	 -0.575	 -0.535
  5.227	 -0.575	 -0.525
  5.234	 -0.565	 -0.525
  5.242	 -0.555	 -0.515
  5.250	 -0.545	 -0.505
  5.258	 -0.545	 -0.495
  5.266	 -0.535	 -0.495
  5.273	 -0.525	 -0.485
  5.281	 -0.515	 -0.475
  5.289	 -0.515	 -0.475
  5.297	 -0.505	 -0.465
  5.305	 -0.495	 -0.455
  5.312	 -0.485	 -0.455
  5.320	 -0.485	 -0.445
  5.328	 -0.475	 -0.445
  5.336	 -0.465	 -0.435
  5.344	 -0.465	 -0.425
  5.352	 -0.455	 -0.415
  5.359	 -0.445	 -0.425
  5.367	 -0.435	 -0.415
  5.375	 -0.425	 -0.405
  5.383	 -0.425	 -0.395
  5.391	 -0.425	 -0.395
  5.398	 -0.415	 -0.385
  5.406	 -0.405	 -0.375
  5.414	 -0.405	 -0.375
  5.422	 -0.395	 -0.375
  5.430	 -0.385	 -0.365
  5.438	 -0.375	 -0.355
  5.445	 -0.375	 -0.345
  5.453	 -0.365	 -0.345
  5.461	 -0.365	 -0.345
  5.469	 -0.355	 -0.335
  5.477	 -0.345	 -0.325
  5.484	 -0.345	 -0.325
  5.492	 -0.335	 -0.325
  5.500	 -0.325	 -0.315
  5.508	 -0.325	 -0.305
  5.516	 -0.325	 -0.305
  5.523	 -0.315	 -0.305
  5.531	 -0.305	 -0.295
  5.539	 -0.305	 -0.295
  5.547	 -0.305	 -0.285
  5.555	 -0.295	 -0.285
  5.562	 -0.295	 -0.275
  5.570	 -0.285	 -0.275
  5.578	 -0.285	 -0.275
  5.586	 -0.285	 -0.265
  5.594	 -0.275	 -0.255
  5.602	 -0.265	 -0.255
  5.609	 -0.265	 -0.255
  5.617	 -0.255	 -0.245
  5.625	 -0.255	 -0.245
  5.633	 -0.245	 -0.235
  5.641	 -0.235	 -0.225
  5.648	 -0.225	 -0.215
  5.656	 -0.045	 -0.065
  5.664	  0.585	  0.525
  5.672	  0.555	  0.495
  5.680	  0.545	  0.485
  5.688	  0.545	  0.485
  5.695	  0.535	  0.475
  5.703	  0.525	  0.465
  5.711	  0.515	  0.465
  5.719	  0.505	  0.455
  5.727	  0.495	  0.445
  5.734	  0.495	  0.435
  5.742	  0.485	  0.425
  5.750	  0.475	  0.425
  5.758	  0.465	  0.415
  5.766	  0.455	  0.405
  5.773	  0.455	  0.405
  5.781	  0.435	  0.395
  5.789	  0.435	  0.385
  5.797	  0.425	  0.375
  5.805	  0.415	  0.375
  5.812	  0.415	  0.375
  5.820	  0.405	  0.365
  5.828	  0.395	  0.355
  5.836	  0.395	  0.345
  5.844	  0.385	  0.345
  5.852	  0.375	  0.335
  5.859	  0.375	  0.325
  5.867	  0.365	  0.315
  5.875	  0.355	  0.315
  5.883	  0.345	  0.305
  5.891	  0.345	  0.305
  5.898	  0.335	  0.295
  5.906	  0.325	  0.285
  5.914	  0.325	  0.285
  5.922	  0.315	  0.275
  5.930	  0.315	  0.265
  5.938	  0.305	  0.265
  5.945	  0.295	  0.265
  5.953	  0.295	  0.255
  5.961	  0.285	  0.245
  5.969	  0.275	  0.245
  5.977	  0.275	  0.235
  5.984	  0.265	  0.235
  5.992	  0.265	  0.225
  6.000	  0.255	  0.225
  6.008	  0.245	  0.215
  6.016	  0.245	  0.205
  6.023	  0.235	  0.205
  6.031	  0.235	  0.205
  6.039	  0.225	  0.195
  6.047	  0.215	  0.185
  6.055	  0.215	  0.185
  6.062	  0.215	  0.185
  6.070	  0.205	  0.175
  6.078	  0.195	  0.165
  6.086	  0.195	  0.165
  6.094	  0.185	  0.155
  6.102	  0.185	  0.155
  6.109	  0.175	  0.145
  6.117	  0.165	  0.145
  6.125	  0.165	  0.135
  6.133	  0.155	  0.135
  6.141	  0.145	  0.115
  6.148	  0.135	  0.115
  6.156	 -0.615	 -0.525
  6.164	 -0.665	 -0.595
  6.172	 -0.635	 -0.585
  6.180	 -0.635	 -0.575
  6.188	 -0.625	 -0.575
  6.195	 -0.625	 -0.565
  6.203	 -0.615	 -0.565
  6.211	 -0.605	 -0.555
  6.219	 -0.605	 -0.545
  6.227	 -0.595	 -0.545
  6.234	 -0.585	 -0.535
  6.242	 -0.575	 -0.535
  6.250	 -0.565	 -0.515
  6.258	 -0.565	 -0.515
  6.266	 -0.555	 -0.505
  6.273	 -0.545	 -0.505
  6.281	 -0.535	 -0.495
  6.289	 -0.525	 -0.485
  6.297	 -0.515	 -0.485
  6.305	 -0.515	 -0.475
  6.312	 -0.505	 -0.475
  6.320	 -0.495	 -0.465
  6.328	 -0.495	 -0.465
  6.336	 -0.495	 -0.455
  6.344	 -0.475	 -0.445
  6.352	 -0.475	 -0.435
  6.359	 -0.465	 -0.435
  6.367	 -0.465	 -0.425
  6.375	 -0.455	 -0.425
  6.383	 -0.445	 -0.415
  6.391	 -0.445	 -0.415
  6.398	 -0.435	 -0.405
  6.406	 -0.435	 -0.405
  6.414	 -0.425	 -0.395
  6.422	 -0.425	 -0.395
  6.430	 -0.415	 -0.385
  6.438	 -0.405	 -0.375
  6.445	 -0.405	 -0.375
  6.453	 -0.395	 -0.375
  6.461	 -0.385	 -0.365
  6.469	 -0.385	 -0.365
  6.477	 -0.375	 -0.355
  6.484	 -0.375	 -0.355
  6.492	 -0.365	 -0.345
  6.500	 -0.365	 -0.345
  6.508	 -0.355	 -0.335
  6.516	 -0.345	 -0.335
  6.523	 -0.345	 -0.325
  6.531	 -0.335	 -0.325
  6.539	 -0.335	 -0.315
  6.547	 -0.325	 -0.315
  6.555	 -0.325	 -0.305
  6.562	 -0.315	 -0.305
  6.570	 -0.305	 -0.305
  6.578	 -0.305	 -0.295
  6.586	 -0.295	 -0.295
  6.594	 -0.295	 -0.285
  6.602	 -0.285	 -0.285
  6.609	 -0.285	 -0.285
  6.617	 -0.275	 -0.275
  6.625	 -0.275	 -0.265
  6.633	 -0.265	 -0.265
  6.641	 -0.255	 -0.255
  6.648	 -0.235	 -0.245
  6.656	  0.295	  0.205
  6.664	  0.575	  0.475
  6.672	  0.535	  0.455
  6.680	  0.535	  0.445
  6.688	  0.525	  0.445
  6.695	  0.515	  0.445
  6.703	  0.505	  0.425
  6.711	  0.505	  0.425
  6.719	  0.495	  0.425
  6.727	  0.485	  0.415
  6.734	  0.475	  0.405
  6.742	  0.475	  0.395
  6.750	  0.465	  0.385
  6.758	  0.465	  0.385
  6.766	  0.445	  0.375
  6.773	  0.435	  0.365
  6.781	  0.425	  0.365
  6.789	  0.425	  0.355
  6.797	  0.415	  0.345
  6.805	  0.405	  0.335
  6.812	  0.395	  0.335
  6.820	  0.385	  0.325
  6.828	  0.375	  0.315
  6.836	  0.375	  0.305
  6.844	  0.375	  0.305
  6.852	  0.355	  0.295
  6.859	  0.345	  0.285
  6.867	  0.345	  0.285
  6.875	  0.345	  0.275
  6.883	  0.335	  0.265
  6.891	  0.325	  0.265
  6.898	  0.325	  0.255
  6.906	  0.315	  0.255
  6.914	  0.305	  0.245
  6.922	  0.305	  0.235
  6.930	  0.295	  0.225
  6.938	  0.295	  0.225
  6.945	  0.285	  0.225
  6.953	  0.275	  0.215
  6.961	  0.275	  0.205
  6.969	  0.275	  0.205
  6.977	  0.265	  0.205
  6.984	  0.255	  0.195
  6.992	  0.255	  0.195
  7.000	  0.245	  0.185
  7.008	  0.235	  0.185
  7.016	  0.235	  0.165
  7.023	  0.225	  0.165
  7.031	  0.225	  0.165
  7.039	  0.215	  0.165
  7.047	  0.215	  0.145
  7.055	  0.205	  0.145
  7.062	  0.205	  0.145
  7.070	  0.205	  0.145
  7.078	  0.195	  0.135
  7.086	  0.185	  0.125
  7.094	  0.185	  0.125
  7.102	  0.175	  0.125
  7.109	  0.165	  0.115
  7.117	  0.165	  0.115
  7.125	  0.155	  0.095
  7.133	  0.155	  0.095
  7.141	  0.135	  0.085
  7.148	  0.115	  0.075
  7.156	 -0.535	 -0.495
  7.164	 -0.675	 -0.645
  7.172	 -0.645	 -0.625
  7.180	 -0.635	 -0.615
  7.188	 -0.635	 -0.615
  7.195	 -0.625	 -0.605
  7.203	 -0.615	 -0.605
  7.211	 -0.605	 -0.595
  7.219	 -0.605	 -0.585
  7.227	 -0.595	 -0.575
  7.234	 -0.585	 -0.575
  7.242	 -0.575	 -0.565
  7.250	 -0.575	 -0.555
  7.258	 -0.565	 -0.545
  7.266	 -0.555	 -0.545
  7.273	 -0.545	 -0.535
  7.281	 -0.535	 -0.525
  7.289	 -0.535	 -0.525
  7.297	 -0.525	 -0.515
  7.305	 -0.515	 -0.515
  7.312	 -0.515	 -0.505
  7.320	 -0.505	 -0.495
  7.328	 -0.495	 -0.495
  7.336	 -0.485	 -0.485
  7.344	 -0.485	 -0.475
  7.352	 -0.475	 -0.465
  7.359	 -0.475	 -0.465
  7.367	 -0.465	 -0.465
  7.375	 -0.455	 -0.455
  7.383	 -0.445	 -0.445
  7.391	 -0.445	 -0.445
  7.398	 -0.435	 -0.435
  7.406	 -0.425	 -0.435
  7.414	 -0.425	 -0.425
  7.422	 -0.415	 -0.425
  7.430	 -0.405	 -0.415
  7.438	 -0.395	 -0.405
  7.445	 -0.405	 -0.395
  7.453	 -0.385	 -0.395
  7.461	 -0.385	 -0.395
  7.469	 -0.375	 -0.385
  7.477	 -0.375	 -0.385
  7.484	 -0.365	 -0.385
  7.492	 -0.355	 -0.375
  7.500	 -0.355	 -0.365
  7.508	 -0.355	 -0.365
  7.516	 -0.345	 -0.355
  7.523	 -0.345	 -0.355
  7.531	 -0.335	 -0.345
  7.539	 -0.325	 -0.345
  7.547	 -0.325	 -0.345
  7.555	 -0.315	 -0.335
  7.562	 -0.315	 -0.325
  7.570	 -0.315	 -0.325
  7.578	 -0.305	 -0.315
  7.586	 -0.295	 -0.315
  7.594	 -0.295	 -0.305
  7.602	 -0.295	 -0.305
  7.609	 -0.295	 -0.295
  7.617	 -0.275	 -0.295
  7.625	 -0.275	 -0.285
  7.633	 -0.275	 -0.275
  7.641	 -0.265	 -0.275
  7.648	 -0.245	 -0.255
  7.656	 -0.105	 -0.135
  7.664	  0.575	  0.475
  7.672	  0.535	  0.445
  7.680	  0.525	  0.435
  7.688	  0.515	  0.435
  7.695	  0.515	  0.435
  7.703	  0.505	  0.425
  7.711	  0.505	  0.415
  7.719	  0.495	  0.405
  7.727	  0.485	  0.405
  7.734	  0.475	  0.395
  7.742	  0.465	  0.385
  7.750	  0.465	  0.375
  7.758	  0.455	  0.375
  7.766	  0.445	  0.365
  7.773	  0.435	  0.365
  7.781	  0.435	  0.355
  7.789	  0.425	  0.355
  7.797	  0.415	  0.335
  7.805	  0.405	  0.335
  7.812	  0.405	  0.325
  7.820	  0.395	  0.325
  7.828	  0.385	  0.315
  7.836	  0.375	  0.305
  7.844	  0.375	  0.305
  7.852	  0.365	  0.295
  7.859	  0.355	  0.285
  7.867	  0.355	  0.285
  7.875	  0.345	  0.275
  7.883	  0.335	  0.275
  7.891	  0.335	  0.265
  7.898	  0.325	  0.255
  7.906	  0.315	  0.255
  7.914	  0.315	  0.245
  7.922	  0.305	  0.245
  7.930	  0.295	  0.235
  7.938	  0.285	  0.235
  7.945	  0.285	  0.225
  7.953	  0.275	  0.225
  7.961	  0.275	  0.215
  7.969	  0.265	  0.215
  7.977	  0.255	  0.205
  7.984	  0.255	  0.195
  7.992	  0.245	  0.195
  8.000	  0.245	  0.195
  8.008	  0.235	  0.185
  8.016	  0.225	  0.175
  8.023	  0.225	  0.175
  8.031	  0.215	  0.175
  8.039	  0.215	  0.165
  8.047	  0.215	  0.165
  8.055	  0.205	  0.155
  8.062	  0.195	  0.155
  8.070	  0.195	  0.145
  8.078	  0.185	  0.145
  8.086	  0.185	  0.135
  8.094	  0.175	  0.135
  8.102	  0.175	  0.125
  8.109	  0.165	  0.125
  8.117	  0.165	  0.115
  8.125	  0.155	  0.115
  8.133	  0.145	  0.115
  8.141	  0.135	  0.095
  8.148	  0.125	  0.095
  8.156	 -0.605	 -0.575
  8.164	 -0.645	 -0.625
  8.172	 -0.635	 -0.615
  8.180	 -0.625	 -0.605
  8.188	 -0.625	 -0.605
  8.195	 -0.615	 -0.595
  8.203	 -0.615	 -0.595
  8.211	 -0.605	 -0.585
  8.219	 -0.595	 -0.575
  8.227	 -0.585	 -0.565
  8.234	 -0.585	 -0.565
  8.242	 -0.575	 -0.545
  8.250	 -0.565	 -0.545
  8.258	 -0.555	 -0.535
  8.266	 -0.545	 -0.535
  8.273	 -0.535	 -0.525
  8.281	 -0.535	 -0.515
  8.289	 -0.525	 -0.505
  8.297	 -0.515	 -0.505
  8.305	 -0.515	 -0.495
  8.312	 -0.505	 -0.485
  8.320	 -0.505	 -0.475
  8.328	 -0.495	 -0.475
  8.336	 -0.485	 -0.465
  8.344	 -0.475	 -0.465
  8.352	 -0.465	 -0.455
  8.359	 -0.465	 -0.445
  8.367	 -0.465	 -0.435
  8.375	 -0.455	 -0.435
  8.383	 -0.445	 -0.425
  8.391	 -0.445	 -0.425
  8.398	 -0.435	 -0.415
  8.406	 -0.435	 -0.405
  8.414	 -0.425	 -0.405
  8.422	 -0.415	 -0.405
  8.430	 -0.405	 -0.395
  8.438	 -0.405	 -0.385
  8.445	 -0.395	 -0.375
  8.453	 -0.395	 -0.375
  8.461	 -0.385	 -0.375
  8.469	 -0.375	 -0.365
  8.477	 -0.365	 -0.355
  8.484	 -0.365	 -0.355
  8.492	 -0.355	 -0.355
  8.500	 -0.345	 -0.345
  8.508	 -0.345	 -0.335
  8.516	 -0.345	 -0.335
  8.523	 -0.325	 -0.325
  8.531	 -0.325	 -0.325
  8.539	 -0.325	 -0.315
  8.547	 -0.315	 -0.315
  8.555	 -0.305	 -0.305
  8.562	 -0.305	 -0.305
  8.570	 -0.295	 -0.295
  8.578	 -0.295	 -0.295
  8.586	 -0.285	 -0.285
  8.594	 -0.285	 -0.275
  8.602	 -0.275	 -0.275
  8.609	 -0.275	 -0.275
  8.617	 -0.265	 -0.265
  8.625	 -0.265	 -0.255
  8.633	 -0.255	 -0.255
  8.641	 -0.245	 -0.245
  8.648	 -0.215	 -0.235
  8.656	  0.485	  0.385
  8.664	  0.575	  0.495
  8.672	  0.545	  0.475
  8.680	  0.535	  0.465
  8.688	  0.525	  0.465
  8.695	  0.525	  0.455
  8.703	  0.515	  0.445
  8.711	  0.505	  0.445
  8.719	  0.505	  0.435
  8.727	  0.495	  0.425
  8.734	  0.485	  0.415
  8.742	  0.475	  0.415
  8.750	  0.475	  0.405
  8.758	  0.455	  0.395
  8.766	  0.455	  0.385
  8.773	  0.445	  0.375
  8.781	  0.435	  0.375
  8.789	  0.435	  0.375
  8.797	  0.425	  0.355
  8.805	  0.415	  0.355
  8.812	  0.405	  0.355
  8.820	  0.395	  0.345
  8.828	  0.395	  0.335
  8.836	  0.395	  0.325
  8.844	  0.375	  0.325
  8.852	  0.375	  0.315
  8.859	  0.355	  0.305
  8.867	  0.355	  0.305
  8.875	  0.345	  0.295
  8.883	  0.345	  0.295
  8.891	  0.335	  0.285
  8.898	  0.335	  0.275
  8.906	  0.325	  0.275
  8.914	  0.325	  0.265
  8.922	  0.315	  0.255
  8.930	  0.305	  0.255
  8.938	  0.305	  0.255
  8.945	  0.305	  0.245
  8.953	  0.295	  0.245
  8.961	  0.295	  0.235
  8.969	  0.285	  0.235
  8.977	  0.285	  0.225
  8.984	  0.275	  0.215
  8.992	  0.275	  0.215
  9.000	  0.265	  0.215
  9.008	  0.255	  0.205
  9.016	  0.255	  0.195
  9.023	  0.245	  0.195
  9.031	  0.245	  0.195
  9.039	  0.235	  0.185
  9.047	  0.235	  0.185
  9.055	  0.225	  0.175
  9.062	  0.225	  0.175
  9.070	  0.215	  0.175
  9.078	  0.215	  0.165
  9.086	  0.215	  0.165
  9.094	  0.215	  0.155
  9.102	  0.205	  0.155
  9.109	  0.195	  0.145
  9.117	  0.195	  0.145
  9.125	  0.185	  0.135
  9.133	  0.175	  0.135
  9.141	  0.165	  0.125
  9.148	  0.155	  0.115
  9.156	  0.005	 -0.005
  9.164	 -0.655	 -0.615
  9.172	 -0.625	 -0.595
  9.180	 -0.615	 -0.585
  9.188	 -0.605	 -0.575
  9.195	 -0.595	 -0.575
  9.203	 -0.595	 -0.565
  9.211	 -0.585	 -0.555
  9.219	 -0.575	 -0.555
  9.227	 -0.575	 -0.545
  9.234	 -0.565	 -0.545
  9.242	 -0.555	 -0.535
  9.250	 -0.545	 -0.525
  9.258	 -0.535	 -0.515
  9.266	 -0.535	 -0.515
  9.273	 -0.525	 -0.505
  9.281	 -0.515	 -0.495
  9.289	 -0.505	 -0.485
  9.297	 -0.495	 -0.485
  9.305	 -0.495	 -0.475
  9.312	 -0.485	 -0.465
  9.320	 -0.485	 -0.465
  9.328	 -0.475	 -0.455
  9.336	 -0.455	 -0.455
  9.344	 -0.445	 -0.445
  9.352	 -0.445	 -0.435
  9.359	 -0.445	 -0.435
  9.367	 -0.425	 -0.425
  9.375	 -0.425	 -0.415
  9.383	 -0.415	 -0.415
  9.391	 -0.415	 -0.405
  9.398	 -0.405	 -0.395
  9.406	 -0.395	 -0.395
  9.414	 -0.385	 -0.385
  9.422	 -0.375	 -0.375
  9.430	 -0.375	 -0.375
  9.438	 -0.365	 -0.365
  9.445	 -0.365	 -0.365
  9.453	 -0.365	 -0.365
  9.461	 -0.355	 -0.355
  9.469	 -0.345	 -0.345
  9.477	 -0.345	 -0.345
  9.484	 -0.335	 -0.345
  9.492	 -0.325	 -0.335
  9.500	 -0.315	 -0.325
  9.508	 -0.315	 -0.325
  9.516	 -0.315	 -0.325
  9.523	 -0.305	 -0.315
  9.531	 -0.295	 -0.305
  9.539	 -0.295	 -0.305
  9.547	 -0.285	 -0.305
  9.555	 -0.275	 -0.295
  9.562	 -0.275	 -0.295
  9.570	 -0.265	 -0.285
  9.578	 -0.265	 -0.285
  9.586	 -0.255	 -0.275
  9.594	 -0.255	 -0.265
  9.602	 -0.245	 -0.265
  9.609	 -0.235	 -0.265
  9.617	 -0.225	 -0.255
  9.625	 -0.225	 -0.255
  9.633	 -0.215	 -0.245
  9.641	 -0.205	 -0.235
  9.648	 -0.185	 -0.225
  9.656	  0.445	  0.375
  9.664	  0.585	  0.495
  9.672	  0.565	  0.475
  9.680	  0.565	  0.475
  9.688	  0.555	  0.465
  9.695	  0.545	  0.455
  9.703	  0.545	  0.445
  9.711	  0.535	  0.445
  9.719	  0.535	  0.435
  9.727	  0.525	  0.425
  9.734	  0.515	  0.415
  9.742	  0.505	  0.415
  9.750	  0.495	  0.405
  9.758	  0.495	  0.405
  9.766	  0.485	  0.385
  9.773	  0.485	  0.385
  9.781	  0.475	  0.375
  9.789	  0.455	  0.375
  9.797	  0.455	  0.365
  9.805	  0.445	  0.355
  9.812	  0.435	  0.345
  9.820	  0.435	  0.345
  9.828	  0.425	  0.335
  9.836	  0.425	  0.325
  9.844	  0.415	  0.325
  9.852	  0.405	  0.315
  9.859	  0.395	  0.305
  9.867	  0.395	  0.305
  9.875	  0.375	  0.295
  9.883	  0.375	  0.295
  9.891	  0.375	  0.275
  9.898	  0.365	  0.275
  9.906	  0.355	  0.265
  9.914	  0.355	  0.265
  9.922	  0.345	  0.255
  9.930	  0.345	  0.255
  9.938	  0.335	  0.245
  9.945	  0.325	  0.245
  9.953	  0.325	  0.225
  9.961	  0.315	  0.225
  9.969	  0.305	  0.215
  9.977	  0.305	  0.215
  9.984	  0.295	  0.205
  9.992	  0.295	  0.205
 10.000	  0.285	  0.205
 10.008	  0.285	  0.195
 10.016	  0.275	  0.185
 10.023	  0.275	  0.185
 10.031	  0.265	  0.175
 10.039	  0.265	  0.175
 10.047	  0.255	  0.165
 10.055	  0.255	  0.165
 10.062	  0.245	  0.155
 10.070	  0.245	  0.155
 10.078	  0.235	  0.145
 10.086	  0.235	  0.135
 10.094	  0.225	  0.145
 10.102	  0.225	  0.135
 10.109	  0.225	  0.125
 10.117	  0.215	  0.125
 10.125	  0.205	  0.115
 10.133	  0.205	  0.115
 10.141	  0.195	  0.095
 10.148	  0.175	  0.095
 10.156	 -0.475	 -0.525
 10.164	 -0.595	 -0.625
 10.172	 -0.575	 -0.605
 10.180	 -0.575	 -0.595
 10.188	 -0.575	 -0.595
 10.195	 -0.565	 -0.595
 10.203	 -0.555	 -0.585
 10.211	 -0.545	 -0.585
 10.219	 -0.535	 -0.575
 10.227	 -0.535	 -0.565
 10.234	 -0.525	 -0.565
 10.242	 -0.525	 -0.555
 10.250	 -0.515	 -0.545
 10.258	 -0.505	 -0.535
 10.266	 -0.505	 -0.535
 10.273	 -0.495	 -0.525
 10.281	 -0.495	 -0.515
 10.289	 -0.485	 -0.515
 10.297	 -0.475	 -0.515
 10.305	 -0.465	 -0.505
 10.312	 -0.465	 -0.495
 10.320	 -0.455	 -0.485
 10.328	 -0.445	 -0.485
 10.336	 -0.435	 -0.475
 10.344	 -0.435	 -0.465
 10.352	 -0.425	 -0.465
 10.359	 -0.415	 -0.465
 10.367	 -0.415	 -0.455
 10.375	 -0.405	 -0.445
 10.383	 -0.395	 -0.435
 10.391	 -0.395	 -0.435
 10.398	 -0.385	 -0.435
 10.406	 -0.375	 -0.425
 10.414	 -0.375	 -0.415
 10.422	 -0.365	 -0.415
 10.430	 -0.355	 -0.405
 10.438	 -0.355	 -0.395
 10.445	 -0.345	 -0.395
 10.453	 -0.345	 -0.395
 10.461	 -0.335	 -0.385
 10.469	 -0.325	 -0.375
 10.477	 -0.325	 -0.375
 10.484	 -0.315	 -0.365
 10.492	 -0.315	 -0.365
 10.500	 -0.305	 -0.355
 10.508	 -0.295	 -0.355
 10.516	 -0.285	 -0.345
 10.523	 -0.295	 -0.345
 10.531	 -0.285	 -0.335
 10.539	 -0.275	 -0.335
 10.547	 -0.275	 -0.335
 10.555	 -0.265	 -0.325
 10.562	 -0.265	 -0.325
 10.570	 -0.255	 -0.315
 10.578	 -0.255	 -0.315
 10.586	 -0.235	 -0.305
 10.594	 -0.235	 -0.305
 10.602	 -0.225	 -0.305
 10.609	 -0.225	 -0.295
 10.617	 -0.215	 -0.285
 10.625	 -0.215	 -0.285
 10.633	 -0.205	 -0.275
 10.641	 -0.195	 -0.265
 10.648	 -0.185	 -0.255
 10.656	  0.305	  0.185
 10.664	  0.625	  0.465
 10.672	  0.585	  0.445
 10.680	  0.575	  0.435
 10.688	  0.565	  0.435
 10.695	  0.565	  0.425
 10.703	  0.555	  0.415
 10.711	  0.555	  0.415
 10.719	  0.535	  0.405
 10.727	  0.535	  0.395
 10.734	  0.525	  0.385
 10.742	  0.515	  0.385
 10.750	  0.505	  0.375
 10.758	  0.495	  0.365
 10.766	  0.485	  0.365
 10.773	  0.485	  0.355
 10.781	  0.475	  0.345
 10.789	  0.465	  0.345
 10.797	  0.455	  0.335
 10.805	  0.455	  0.325
 10.812	  0.445	  0.325
 10.820	  0.435	  0.315
 10.828	  0.425	  0.305
 10.836	  0.425	  0.295
 10.844	  0.415	  0.295
 10.852	  0.405	  0.285
 10.859	  0.395	  0.285
 10.867	  0.395	  0.275
 10.875	  0.395	  0.265
 10.883	  0.375	  0.265
 10.891	  0.375	  0.255
 10.898	  0.365	  0.255
 10.906	  0.365	  0.245
 10.914	  0.355	  0.245
 10.922	  0.355	  0.235
 10.930	  0.345	  0.235
 10.938	  0.335	  0.225
 10.945	  0.335	  0.215
 10.953	  0.325	  0.215
 10.961	  0.325	  0.215
 10.969	  0.315	  0.205
 10.977	  0.305	  0.205
 10.984	  0.305	  0.195
 10.992	  0.305	  0.195
 11.000	  0.295	  0.185
 11.008	  0.285	  0.185
 11.016	  0.275	  0.175
 11.023	  0.275	  0.175
 11.031	  0.265	  0.165
 11.039	  0.265	  0.165
 11.047	  0.255	  0.155
 11.055	  0.255	  0.155
 11.062	  0.245	  0.145
 11.070	  0.245	  0.145
 11.078	  0.235	  0.135
 11.086	  0.235	  0.135
 11.094	  0.225	  0.135
 11.102	  0.225	  0.125
 11.109	  0.215	  0.115
 11.117	  0.215	  0.115
 11.125	  0.205	  0.115
 11.133	  0.195	  0.105
 11.141	  0.185	  0.095
 11.148	  0.165	  0.085
 11.156	 -0.295	 -0.315
 11.164	 -0.635	 -0.635
 11.172	 -0.605	 -0.615
 11.180	 -0.595	 -0.605
 11.188	 -0.585	 -0.605
 11.195	 -0.585	 -0.595
 11.203	 -0.575	 -0.585
 11.211	 -0.565	 -0.585
 11.219	 -0.555	 -0.575
 11.227	 -0.555	 -0.565
 11.234	 -0.545	 -0.565
 11.242	 -0.535	 -0.555
 11.250	 -0.525	 -0.545
 11.258	 -0.515	 -0.535
 11.266	 -0.515	 -0.535
 11.273	 -0.505	 -0.525
 11.281	 -0.495	 -0.515
 11.289	 -0.485	 -0.505
 11.297	 -0.485	 -0.505
 11.305	 -0.475	 -0.495
 11.312	 -0.465	 -0.495
 11.320	 -0.455	 -0.485
 11.328	 -0.455	 -0.475
 11.336	 -0.445	 -0.465
 11.344	 -0.435	 -0.465
 11.352	 -0.425	 -0.455
 11.359	 -0.415	 -0.445
 11.367	 -0.415	 -0.445
 11.375	 -0.405	 -0.435
 11.383	 -0.395	 -0.425
 11.391	 -0.395	 -0.425
 11.398	 -0.385	 -0.415
 11.406	 -0.385	 -0.405
 11.414	 -0.375	 -0.405
 11.422	 -0.365	 -0.405
 11.430	 -0.365	 -0.395
 11.438	 -0.365	 -0.385
 11.445	 -0.355	 -0.385
 11.453	 -0.345	 -0.375
 11.461	 -0.345	 -0.375
 11.469	 -0.335	 -0.365
 11.477	 -0.325	 -0.355
 11.484	 -0.325	 -0.355
 11.492	 -0.315	 -0.345
 11.500	 -0.305	 -0.345
 11.508	 -0.305	 -0.335
 11.516	 -0.295	 -0.345
 11.523	 -0.295	 -0.335
 11.531	 -0.295	 -0.325
 11.539	 -0.285	 -0.325
 11.547	 -0.285	 -0.325
 11.555	 -0.275	 -0.315
 11.562	 -0.265	 -0.315
 11.570	 -0.265	 -0.305
 11.578	 -0.265	 -0.295
 11.586	 -0.255	 -0.295
 11.594	 -0.245	 -0.285
 11.602	 -0.235	 -0.285
 11.609	 -0.235	 -0.275
 11.617	 -0.225	 -0.275
 11.625	 -0.225	 -0.265
 11.633	 -0.215	 -0.255
 11.641	 -0.205	 -0.255
 11.648	 -0.185	 -0.245
 11.656	  0.505	  0.365
 11.664	  0.615	  0.485
 11.672	  0.585	  0.455
 11.680	  0.575	  0.455
 11.688	  0.575	  0.455
 11.695	  0.565	  0.445
 11.703	  0.555	  0.435
 11.711	  0.555	  0.425
 11.719	  0.535	  0.425
 11.727	  0.525	  0.415
 11.734	  0.525	  0.405
 11.742	  0.515	  0.405
 11.750	  0.505	  0.395
 11.758	  0.505	  0.395
 11.766	  0.495	  0.385
 11.773	  0.485	  0.375
 11.781	  0.485	  0.365
 11.789	  0.475	  0.365
 11.797	  0.465	  0.355
 11.805	  0.455	  0.345
 11.812	  0.445	  0.345
 11.820	  0.445	  0.335
 11.828	  0.435	  0.325
 11.836	  0.425	  0.325
 11.844	  0.415	  0.315
 11.852	  0.405	  0.315
 11.859	  0.405	  0.295
 11.867	  0.395	  0.295
 11.875	  0.385	  0.285
 11.883	  0.385	  0.285
 11.891	  0.375	  0.275
 11.898	  0.365	  0.275
 11.906	  0.365	  0.265
 11.914	  0.355	  0.265
 11.922	  0.345	  0.255
 11.930	  0.345	  0.245
 11.938	  0.335	  0.245
 11.945	  0.335	  0.235
 11.953	  0.325	  0.225
 11.961	  0.315	  0.225
 11.969	  0.315	  0.225
 11.977	  0.305	  0.215
 11.984	  0.295	  0.205
 11.992	  0.295	  0.205
 12.000	  0.285	  0.205
 12.008	  0.285	  0.195
 12.016	  0.275	  0.195
 12.023	  0.275	  0.185
 12.031	  0.265	  0.185
 12.039	  0.265	  0.175
 12.047	  0.255	  0.165
 12.055	  0.255	  0.165
 12.062	  0.245	  0.165
 12.070	  0.245	  0.155
 12.078	  0.225	  0.155
 12.086	  0.235	  0.155
 12.094	  0.225	  0.145
 12.102	  0.215	  0.145
 12.109	  0.205	  0.135
 12.117	  0.205	  0.125
 12.125	  0.205	  0.125
 12.133	  0.195	  0.125
 12.141	  0.185	  0.105
 12.148	  0.165	  0.095
 12.156	 -0.335	 -0.365
 12.164	 -0.635	 -0.625
 12.172	 -0.605	 -0.605
 12.180	 -0.595	 -0.595
 12.188	 -0.595	 -0.595
 12.195	 -0.585	 -0.585
 12.203	 -0.585	 -0.585
 12.211	 -0.575	 -0.575
 12.219	 -0.565	 -0.565
 12.227	 -0.555	 -0.555
 12.234	 -0.555	 -0.555
 12.242	 -0.545	 -0.545
 12.250	 -0.535	 -0.525
 12.258	 -0.535	 -0.525
 12.266	 -0.525	 -0.525
 12.273	 -0.515	 -0.515
 12.281	 -0.505	 -0.505
 12.289	 -0.495	 -0.495
 12.297	 -0.495	 -0.495
 12.305	 -0.485	 -0.485
 12.312	 -0.485	 -0.475
 12.320	 -0.465	 -0.475
 12.328	 -0.455	 -0.465
 12.336	 -0.445	 -0.465
 12.344	 -0.445	 -0.455
 12.352	 -0.435	 -0.445
 12.359	 -0.425	 -0.445
 12.367	 -0.425	 -0.435
 12.375	 -0.425	 -0.425
 12.383	 -0.415	 -0.425
 12.391	 -0.405	 -0.415
 12.398	 -0.395	 -0.405
 12.406	 -0.395	 -0.405
 12.414	 -0.385	 -0.395
 12.422	 -0.375	 -0.395
 12.430	 -0.375	 -0.385
 12.438	 -0.365	 -0.375
 12.445	 -0.365	 -0.365
 12.453	 -0.355	 -0.365
 12.461	 -0.345	 -0.365
 12.469	 -0.345	 -0.345
 12.477	 -0.335	 -0.345
 12.484	 -0.335	 -0.345
 12.492	 -0.325	 -0.345
 12.500	 -0.315	 -0.335
 12.508	 -0.315	 -0.325
 12.516	 -0.305	 -0.325
 12.523	 -0.305	 -0.315
 12.531	 -0.295	 -0.315
 12.539	 -0.295	 -0.305
 12.547	 -0.285	 -0.305
 12.555	 -0.285	 -0.305
 12.562	 -0.275	 -0.295
 12.570	 -0.275	 -0.295
 12.578	 -0.275	 -0.285
 12.586	 -0.265	 -0.285
 12.594	 -0.265	 -0.275
 12.602	 -0.255	 -0.275
 12.609	 -0.255	 -0.275
 12.617	 -0.245	 -0.265
 12.625	 -0.245	 -0.255
 12.633	 -0.235	 -0.245
 12.641	 -0.225	 -0.245
 12.648	 -0.195	 -0.225
 12.656	  0.415	  0.345
 12.664	  0.585	  0.495
 12.672	  0.555	  0.475
 12.680	  0.555	  0.465
 12.688	  0.545	  0.465
 12.695	  0.535	  0.455
 12.703	  0.535	  0.445
 12.711	  0.525	  0.445
 12.719	  0.515	  0.435
 12.727	  0.505	  0.425
 12.734	  0.505	  0.415
 12.742	  0.495	  0.415
 12.750	  0.485	  0.405
 12.758	  0.475	  0.405
 12.766	  0.465	  0.385
 12.773	  0.465	  0.385
 12.781	  0.455	  0.385
 12.789	  0.445	  0.365
 12.797	  0.435	  0.365
 12.805	  0.425	  0.355
 12.812	  0.425	  0.355
 12.820	  0.415	  0.345
 12.828	  0.405	  0.335
 12.836	  0.395	  0.335
 12.844	  0.395	  0.325
 12.852	  0.385	  0.315
 12.859	  0.385	  0.315
 12.867	  0.375	  0.305
 12.875	  0.365	  0.305
 12.883	  0.365	  0.295
 12.891	  0.355	  0.285
 12.898	  0.345	  0.275
 12.906	  0.335	  0.275
 12.914	  0.335	  0.275
 12.922	  0.325	  0.265
 12.930	  0.325	  0.255
 12.938	  0.315	  0.255
 12.945	  0.305	  0.255
 12.953	  0.295	  0.235
 12.961	  0.295	  0.235
 12.969	  0.295	  0.235
 12.977	  0.285	  0.225
 12.984	  0.275	  0.225
 12.992	  0.275	  0.215
 13.000	  0.265	  0.215
 13.008	  0.255	  0.205
 13.016	  0.245	  0.205
 13.023	  0.245	  0.195
 13.031	  0.235	  0.195
 13.039	  0.235	  0.185
 13.047	  0.235	  0.185
 13.055	  0.225	  0.175
 13.062	  0.215	  0.175
 13.070	  0.215	  0.175
 13.078	  0.205	  0.155
 13.086	  0.205	  0.155
 13.094	  0.195	  0.155
 13.102	  0.195	  0.155
 13.109	  0.175	  0.145
 13.117	  0.175	  0.135
 13.125	  0.175	  0.135
 13.133	  0.165	  0.125
 13.141	  0.155	  0.115
 13.148	  0.145	  0.105
 13.156	 -0.095	 -0.155
 13.164	 -0.675	 -0.625
 13.172	 -0.645	 -0.595
 13.180	 -0.625	 -0.595
 13.188	 -0.625	 -0.585
 13.195	 -0.615	 -0.575
 13.203	 -0.615	 -0.575
 13.211	 -0.605	 -0.565
 13.219	 -0.595	 -0.555
 13.227	 -0.585	 -0.545
 13.234	 -0.585	 -0.545
 13.242	 -0.575	 -0.535
 13.250	 -0.565	 -0.525
 13.258	 -0.555	 -0.515
 13.266	 -0.545	 -0.515
 13.273	 -0.535	 -0.505
 13.281	 -0.535	 -0.495
 13.289	 -0.525	 -0.495
 13.297	 -0.515	 -0.485
 13.305	 -0.505	 -0.485
 13.312	 -0.495	 -0.475
 13.320	 -0.495	 -0.465
 13.328	 -0.485	 -0.465
 13.336	 -0.475	 -0.455
 13.344	 -0.465	 -0.455
 13.352	 -0.475	 -0.445
 13.359	 -0.465	 -0.435
 13.367	 -0.455	 -0.435
 13.375	 -0.445	 -0.425
 13.383	 -0.445	 -0.425
 13.391	 -0.435	 -0.415
 13.398	 -0.425	 -0.405
 13.406	 -0.425	 -0.405
 13.414	 -0.405	 -0.395
 13.422	 -0.405	 -0.395
 13.430	 -0.395	 -0.395
 13.438	 -0.395	 -0.385
 13.445	 -0.385	 -0.375
 13.453	 -0.375	 -0.375
 13.461	 -0.365	 -0.375
 13.469	 -0.365	 -0.365
 13.477	 -0.355	 -0.365
 13.484	 -0.355	 -0.355
 13.492	 -0.345	 -0.355
 13.500	 -0.345	 -0.345
 13.508	 -0.335	 -0.335
 13.516	 -0.335	 -0.335
 13.523	 -0.325	 -0.335
 13.531	 -0.325	 -0.325
 13.539	 -0.315	 -0.325
 13.547	 -0.315	 -0.315
 13.555	 -0.305	 -0.315
 13.562	 -0.305	 -0.305
 13.570	 -0.295	 -0.305
 13.578	 -0.295	 -0.305
 13.586	 -0.285	 -0.295
 13.594	 -0.285	 -0.285
 13.602	 -0.275	 -0.285
 13.609	 -0.275	 -0.285
 13.617	 -0.265	 -0.275
 13.625	 -0.255	 -0.265
 13.633	 -0.245	 -0.265
 13.641	 -0.235	 -0.255
 13.648	 -0.215	 -0.245
 13.656	  0.405	  0.385
 13.664	  0.555	  0.475
 13.672	  0.525	  0.455
 13.680	  0.525	  0.455
 13.688	  0.515	  0.445
 13.695	  0.505	  0.435
 13.703	  0.505	  0.435
 13.711	  0.495	  0.425
 13.719	  0.485	  0.415
 13.727	  0.475	  0.415
 13.734	  0.465	  0.395
 13.742	  0.465	  0.395
 13.750	  0.455	  0.385
 13.758	  0.445	  0.375
 13.766	  0.445	  0.365
 13.773	  0.435	  0.365
 13.781	  0.415	  0.355
 13.789	  0.415	  0.345
 13.797	  0.405	  0.345
 13.805	  0.405	  0.335
 13.812	  0.395	  0.335
 13.820	  0.385	  0.325
 13.828	  0.375	  0.315
 13.836	  0.375	  0.305
 13.844	  0.365	  0.305
 13.852	  0.355	  0.295
 13.859	  0.345	  0.285
 13.867	  0.345	  0.275
 13.875	  0.335	  0.275
 13.883	  0.335	  0.265
 13.891	  0.325	  0.255
 13.898	  0.325	  0.255
 13.906	  0.315	  0.245
 13.914	  0.305	  0.245
 13.922	  0.295	  0.235
 13.930	  0.295	  0.235
 13.938	  0.285	  0.225
 13.945	  0.275	  0.215
 13.953	  0.275	  0.215
 13.961	  0.265	  0.215
 13.969	  0.265	  0.205
 13.977	  0.255	  0.195
 13.984	  0.255	  0.195
 13.992	  0.245	  0.185
 14.000	  0.245	  0.185
 14.008	  0.235	  0.175
 14.016	  0.235	  0.165
 14.023	  0.225	  0.165
 14.031	  0.225	  0.165
 14.039	  0.215	  0.155
 14.047	  0.215	  0.145
 14.055	  0.205	  0.145
 14.062	  0.205	  0.145
 14.070	  0.205	  0.135
 14.078	  0.195	  0.125
 14.086	  0.195	  0.125
 14.094	  0.185	  0.125
 14.102	  0.185	  0.115
 14.109	  0.175	  0.105
 14.117	  0.165	  0.105
 14.125	  0.155	  0.095
 14.133	  0.145	  0.095
 14.141	  0.135	  0.075
 14.148	  0.125	  0.065
 14.156	 -0.445	 -0.465
 14.164	 -0.685	 -0.655
 14.172	 -0.655	 -0.635
 14.180	 -0.645	 -0.625
 14.188	 -0.635	 -0.615
 14.195	 -0.625	 -0.615
 14.203	 -0.615	 -0.615
 14.211	 -0.615	 -0.605
 14.219	 -0.605	 -0.595
 14.227	 -0.595	 -0.585
 14.234	 -0.585	 -0.585
 14.242	 -0.575	 -0.575
 14.250	 -0.575	 -0.555
 14.258	 -0.565	 -0.555
 14.266	 -0.555	 -0.555
 14.273	 -0.545	 -0.545
 14.281	 -0.545	 -0.535
 14.289	 -0.535	 -0.535
 14.297	 -0.525	 -0.525
 14.305	 -0.525	 -0.515
 14.312	 -0.515	 -0.515
 14.320	 -0.505	 -0.505
 14.328	 -0.495	 -0.505
 14.336	 -0.485	 -0.495
 14.344	 -0.475	 -0.485
 14.352	 -0.475	 -0.485
 14.359	 -0.465	 -0.485
 14.367	 -0.455	 -0.475
 14.375	 -0.455	 -0.455
 14.383	 -0.445	 -0.455
 14.391	 -0.445	 -0.455
 14.398	 -0.435	 -0.445
 14.406	 -0.425	 -0.445
 14.414	 -0.415	 -0.435
 14.422	 -0.415	 -0.435
 14.430	 -0.405	 -0.425
 14.438	 -0.405	 -0.425
 14.445	 -0.395	 -0.415
 14.453	 -0.385	 -0.415
 14.461	 -0.385	 -0.405
 14.469	 -0.385	 -0.395
 14.477	 -0.375	 -0.395
 14.484	 -0.365	 -0.395
 14.492	 -0.355	 -0.385
 14.500	 -0.345	 -0.375
 14.508	 -0.345	 -0.375
 14.516	 -0.345	 -0.375
 14.523	 -0.335	 -0.365
 14.531	 -0.325	 -0.355
 14.539	 -0.315	 -0.355
 14.547	 -0.315	 -0.355
 14.555	 -0.305	 -0.345
 14.562	 -0.305	 -0.345
 14.570	 -0.295	 -0.335
 14.578	 -0.295	 -0.335
 14.586	 -0.295	 -0.325
 14.594	 -0.285	 -0.325
 14.602	 -0.285	 -0.315
 14.609	 -0.285	 -0.315
 14.617	 -0.275	 -0.305
 14.625	 -0.265	 -0.295
 14.633	 -0.265	 -0.295
 14.641	 -0.255	 -0.295
 14.648	 -0.235	 -0.275
 14.656	 -0.045	 -0.025
 14.664	  0.575	  0.455
 14.672	  0.535	  0.425
 14.680	  0.535	  0.425
 14.688	  0.525	  0.425
 14.695	  0.515	  0.415
 14.703	  0.505	  0.405
 14.711	  0.505	  0.395
 14.719	  0.495	  0.395
 14.727	  0.485	  0.385
 14.734	  0.475	  0.375
 14.742	  0.465	  0.375
 14.750	  0.465	  0.365
 14.758	  0.455	  0.365
 14.766	  0.445	  0.345
 14.773	  0.445	  0.345
 14.781	  0.425	  0.335
 14.789	  0.425	  0.335
 14.797	  0.415	  0.325
 14.805	  0.415	  0.315
 14.812	  0.405	  0.315
 14.820	  0.395	  0.305
 14.828	  0.385	  0.295
 14.836	  0.385	  0.285
 14.844	  0.375	  0.285
 14.852	  0.365	  0.275
 14.859	  0.355	  0.265
 14.867	  0.355	  0.265
 14.875	  0.345	  0.255
 14.883	  0.335	  0.255
 14.891	  0.335	  0.245
 14.898	  0.325	  0.235
 14.906	  0.315	  0.235
 14.914	  0.315	  0.225
 14.922	  0.295	  0.215
 14.930	  0.295	  0.215
 14.938	  0.285	  0.205
 14.945	  0.285	  0.205
 14.953	  0.275	  0.195
 14.961	  0.275	  0.195
 14.969	  0.265	  0.185
 14.977	  0.255	  0.185
 14.984	  0.255	  0.175
 14.992	  0.245	  0.175
 15.000	  0.235	  0.175
 15.008	  0.235	  0.165
 15.016	  0.225	  0.155
 15.023	  0.225	  0.155
 15.031	  0.215	  0.155
 15.039	  0.215	  0.145
 15.047	  0.205	  0.135
 15.055	  0.205	  0.135
 15.062	  0.195	  0.135
 15.070	  0.195	  0.135
 15.078	  0.185	  0.115
 15.086	  0.185	  0.115
 15.094	  0.175	  0.115
 15.102	  0.175	  0.115
 15.109	  0.165	  0.105
 15.117	  0.165	  0.105
 15.125	  0.155	  0.095
 15.133	  0.145	  0.085
 15.141	  0.135	  0.075
 15.148	  0.125	  0.065
 15.156	 -0.445	 -0.485
 15.164	 -0.665	 -0.645
 15.172	 -0.635	 -0.625
 15.180	 -0.625	 -0.625
 15.188	 -0.625	 -0.615
 15.195	 -0.615	 -0.605
 15.203	 -0.615	 -0.605
 15.211	 -0.605	 -0.595
 15.219	 -0.595	 -0.595
 15.227	 -0.595	 -0.585
 15.234	 -0.585	 -0.575
 15.242	 -0.575	 -0.575
 15.250	 -0.565	 -0.565
 15.258	 -0.555	 -0.555
 15.266	 -0.545	 -0.545
 15.273	 -0.535	 -0.545
 15.281	 -0.525	 -0.535
 15.289	 -0.525	 -0.525
 15.297	 -0.515	 -0.525
 15.305	 -0.505	 -0.515
 15.312	 -0.495	 -0.505
 15.320	 -0.485	 -0.495
 15.328	 -0.485	 -0.495
 15.336	 -0.475	 -0.485
 15.344	 -0.465	 -0.475
 15.352	 -0.455	 -0.465
 15.359	 -0.455	 -0.465
 15.367	 -0.445	 -0.465
 15.375	 -0.445	 -0.455
 15.383	 -0.435	 -0.445
 15.391	 -0.425	 -0.445
 15.398	 -0.415	 -0.435
 15.406	 -0.415	 -0.425
 15.414	 -0.415	 -0.425
 15.422	 -0.415	 -0.415
 15.430	 -0.405	 -0.415
 15.438	 -0.395	 -0.405
 15.445	 -0.385	 -0.405
 15.453	 -0.385	 -0.395
 15.461	 -0.385	 -0.395
 15.469	 -0.375	 -0.385
 15.477	 -0.365	 -0.375
 15.484	 -0.365	 -0.375
 15.492	 -0.355	 -0.365
 15.500	 -0.345	 -0.365
 15.508	 -0.345	 -0.355
 15.516	 -0.345	 -0.355
 15.523	 -0.335	 -0.345
 15.531	 -0.335	 -0.345
 15.539	 -0.325	 -0.335
 15.547	 -0.325	 -0.335
 15.555	 -0.315	 -0.325
 15.562	 -0.305	 -0.325
 15.570	 -0.305	 -0.315
 15.578	 -0.305	 -0.315
 15.586	 -0.295	 -0.305
 15.594	 -0.295	 -0.295
 15.602	 -0.285	 -0.295
 15.609	 -0.275	 -0.295
 15.617	 -0.275	 -0.285
 15.625	 -0.265	 -0.275
 15.633	 -0.255	 -0.265
 15.641	 -0.245	 -0.265
 15.648	 -0.225	 -0.255
 15.656	  0.385	  0.335
 15.664	  0.575	  0.475
 15.672	  0.545	  0.455
 15.680	  0.535	  0.445
 15.688	  0.525	  0.445
 15.695	  0.515	  0.445
 15.703	  0.505	  0.425
 15.711	  0.505	  0.425
 15.719	  0.495	  0.415
 15.727	  0.485	  0.415
 15.734	  0.475	  0.405
 15.742	  0.465	  0.405
 15.750	  0.455	  0.395
 15.758	  0.455	  0.385
 15.766	  0.445	  0.375
 15.773	  0.435	  0.375
 15.781	  0.425	  0.355
 15.789	  0.425	  0.355
 15.797	  0.415	  0.345
 15.805	  0.405	  0.345
 15.812	  0.395	  0.335
 15.820	  0.395	  0.325
 15.828	  0.385	  0.315
 15.836	  0.375	  0.315
 15.844	  0.365	  0.315
 15.852	  0.365	  0.305
 15.859	  0.365	  0.295
 15.867	  0.355	  0.295
 15.875	  0.345	  0.285
 15.883	  0.345	  0.285
 15.891	  0.335	  0.275
 15.898	  0.325	  0.275
 15.906	  0.315	  0.265
 15.914	  0.315	  0.255
 15.922	  0.305	  0.255
 15.930	  0.305	  0.245
 15.938	  0.295	  0.245
 15.945	  0.285	  0.235
 15.953	  0.285	  0.235
 15.961	  0.285	  0.225
 15.969	  0.275	  0.225
 15.977	  0.265	  0.215
 15.984	  0.265	  0.205
 15.992	  0.255	  0.205
 16.000	  0.255	  0.205
 16.008	  0.245	  0.195
 16.016	  0.245	  0.195
 16.023	  0.235	  0.185
 16.031	  0.225	  0.185
 16.039	  0.225	  0.175
 16.047	  0.225	  0.175
 16.055	  0.215	  0.165
 16.062	  0.215	  0.165
 16.070	  0.205	  0.155
 16.078	  0.195	  0.155
 16.086	  0.195	  0.145
 16.094	  0.185	  0.145
 16.102	  0.185	  0.145
 16.109	  0.175	  0.135
 16.117	  0.175	  0.125
 16.125	  0.165	  0.125
 16.133	  0.155	  0.125
 16.141	  0.145	  0.115
 16.148	  0.135	  0.095
 16.156	 -0.235	 -0.325
 16.164	 -0.685	 -0.625
 16.172	 -0.645	 -0.605
 16.180	 -0.635	 -0.595
 16.188	 -0.625	 -0.585
 16.195	 -0.625	 -0.585
 16.203	 -0.615	 -0.585
 16.211	 -0.615	 -0.575
 16.219	 -0.605	 -0.565
 16.227	 -0.595	 -0.555
 16.234	 -0.585	 -0.555
 16.242	 -0.575	 -0.545
 16.250	 -0.565	 -0.535
 16.258	 -0.555	 -0.525
 16.266	 -0.545	 -0.525
 16.273	 -0.535	 -0.515
 16.281	 -0.535	 -0.505
 16.289	 -0.525	 -0.495
 16.297	 -0.515	 -0.495
 16.305	 -0.505	 -0.485
 16.312	 -0.505	 -0.475
 16.320	 -0.495	 -0.465
 16.328	 -0.485	 -0.465
 16.336	 -0.475	 -0.455
 16.344	 -0.475	 -0.455
 16.352	 -0.465	 -0.435
 16.359	 -0.455	 -0.435
 16.367	 -0.445	 -0.435
 16.375	 -0.435	 -0.425
 16.383	 -0.435	 -0.415
 16.391	 -0.425	 -0.415
 16.398	 -0.415	 -0.405
 16.406	 -0.415	 -0.395
 16.414	 -0.405	 -0.395
 16.422	 -0.395	 -0.395
 16.430	 -0.395	 -0.375
 16.438	 -0.385	 -0.375
 16.445	 -0.375	 -0.365
 16.453	 -0.365	 -0.365
 16.461	 -0.365	 -0.355
 16.469	 -0.355	 -0.345
 16.477	 -0.355	 -0.345
 16.484	 -0.345	 -0.345
 16.492	 -0.335	 -0.335
 16.500	 -0.345	 -0.335
 16.508	 -0.325	 -0.325
 16.516	 -0.325	 -0.325
 16.523	 -0.315	 -0.315
 16.531	 -0.315	 -0.315
 16.539	 -0.305	 -0.305
 16.547	 -0.305	 -0.305
 16.555	 -0.295	 -0.295
 16.562	 -0.295	 -0.295
 16.570	 -0.285	 -0.285
 16.578	 -0.285	 -0.285
 16.586	 -0.275	 -0.275
 16.594	 -0.275	 -0.275
 16.602	 -0.265	 -0.275
 16.609	 -0.265	 -0.265
 16.617	 -0.255	 -0.265
 16.625	 -0.245	 -0.255
 16.633	 -0.235	 -0.245
 16.641	 -0.225	 -0.245
 16.648	 -0.205	 -0.225
 16.656	  0.345	  0.325
 16.664	  0.595	  0.495
 16.672	  0.565	  0.475
 16.680	  0.555	  0.465
 16.688	  0.545	  0.465
 16.695	  0.545	  0.455
 16.703	  0.535	  0.445
 16.711	  0.525	  0.445
 16.719	  0.525	  0.435
 16.727	  0.515	  0.435
 16.734	  0.505	  0.415
 16.742	  0.495	  0.415
 16.750	  0.495	  0.405
 16.758	  0.485	  0.405
 16.766	  0.475	  0.395
 16.773	  0.465	  0.385
 16.781	  0.455	  0.385
 16.789	  0.455	  0.375
 16.797	  0.445	  0.365
 16.805	  0.435	  0.355
 16.812	  0.425	  0.355
 16.820	  0.425	  0.345
 16.828	  0.415	  0.335
 16.836	  0.415	  0.335
 16.844	  0.405	  0.335
 16.852	  0.395	  0.325
 16.859	  0.395	  0.315
 16.867	  0.385	  0.305
 16.875	  0.385	  0.305
 16.883	  0.375	  0.295
 16.891	  0.365	  0.285
 16.898	  0.355	  0.285
 16.906	  0.355	  0.275
 16.914	  0.345	  0.275
 16.922	  0.335	  0.265
 16.930	  0.325	  0.265
 16.938	  0.325	  0.255
 16.945	  0.315	  0.245
 16.953	  0.315	  0.245
 16.961	  0.305	  0.235
 16.969	  0.295	  0.235
 16.977	  0.295	  0.225
 16.984	  0.285	  0.225
 16.992	  0.285	  0.215
 17.000	  0.275	  0.205
 17.008	  0.265	  0.205
 17.016	  0.265	  0.205
 17.023	  0.265	  0.195
 17.031	  0.255	  0.195
 17.039	  0.255	  0.185
 17.047	  0.245	  0.175
 17.055	  0.245	  0.175
 17.062	  0.235	  0.165
 17.070	  0.235	  0.165
 17.078	  0.225	  0.155
 17.086	  0.225	  0.155
 17.094	  0.215	  0.145
 17.102	  0.215	  0.145
 17.109	  0.205	  0.135
 17.117	  0.205	  0.135
 17.125	  0.195	  0.135
 17.133	  0.195	  0.125
 17.141	  0.175	  0.115
 17.148	  0.165	  0.095
 17.156	 -0.275	 -0.385
 17.164	 -0.635	 -0.625
 17.172	 -0.605	 -0.605
 17.180	 -0.595	 -0.595
 17.188	 -0.595	 -0.585
 17.195	 -0.585	 -0.585
 17.203	 -0.575	 -0.585
 17.211	 -0.565	 -0.575
 17.219	 -0.565	 -0.555
 17.227	 -0.555	 -0.555
 17.234	 -0.545	 -0.545
 17.242	 -0.535	 -0.545
 17.250	 -0.535	 -0.535
 17.258	 -0.525	 -0.525
 17.266	 -0.515	 -0.525
 17.273	 -0.505	 -0.515
 17.281	 -0.505	 -0.505
 17.289	 -0.495	 -0.505
 17.297	 -0.485	 -0.495
 17.305	 -0.475	 -0.485
 17.312	 -0.475	 -0.475
 17.320	 -0.465	 -0.475
 17.328	 -0.455	 -0.475
 17.336	 -0.445	 -0.465
 17.344	 -0.435	 -0.455
 17.352	 -0.435	 -0.445
 17.359	 -0.425	 -0.445
 17.367	 -0.415	 -0.445
 17.375	 -0.415	 -0.435
 17.383	 -0.405	 -0.425
 17.391	 -0.395	 -0.425
 17.398	 -0.395	 -0.425
 17.406	 -0.385	 -0.405
 17.414	 -0.375	 -0.405
 17.422	 -0.365	 -0.405
 17.430	 -0.355	 -0.395
 17.438	 -0.345	 -0.385
 17.445	 -0.335	 -0.385
 17.453	 -0.335	 -0.375
 17.461	 -0.325	 -0.375
 17.469	 -0.315	 -0.365
 17.477	 -0.315	 -0.365
 17.484	 -0.305	 -0.365
 17.492	 -0.295	 -0.355
 17.500	 -0.295	 -0.345
 17.508	 -0.285	 -0.345
 17.516	 -0.275	 -0.345
 17.523	 -0.275	 -0.335
 17.531	 -0.265	 -0.335
 17.539	 -0.265	 -0.325
 17.547	 -0.255	 -0.325
 17.555	 -0.255	 -0.315
 17.562	 -0.245	 -0.315
 17.570	 -0.245	 -0.305
 17.578	 -0.235	 -0.305
 17.586	 -0.235	 -0.295
 17.594	 -0.225	 -0.295
 17.602	 -0.225	 -0.285
 17.609	 -0.225	 -0.285
 17.617	 -0.215	 -0.275
 17.625	 -0.205	 -0.275
 17.633	 -0.205	 -0.265
 17.641	 -0.195	 -0.265
 17.648	 -0.175	 -0.245
 17.656	 -0.005	  0.025
 17.664	  0.615	  0.475
 17.672	  0.585	  0.455
 17.680	  0.575	  0.445
 17.688	  0.565	  0.445
 17.695	  0.565	  0.435
 17.703	  0.555	  0.425
 17.711	  0.545	  0.415
 17.719	  0.535	  0.415
 17.727	  0.525	  0.405
 17.734	  0.525	  0.395
 17.742	  0.515	  0.395
 17.750	  0.505	  0.385
 17.758	  0.495	  0.385
 17.766	  0.485	  0.365
 17.773	  0.495	  0.365
 17.781	  0.475	  0.355
 17.789	  0.465	  0.345
 17.797	  0.455	  0.335
 17.805	  0.455	  0.335
 17.812	  0.445	  0.325
 17.820	  0.435	  0.325
 17.828	  0.425	  0.315
 17.836	  0.425	  0.305
 17.844	  0.415	  0.305
 17.852	  0.405	  0.295
 17.859	  0.395	  0.285
 17.867	  0.395	  0.285
 17.875	  0.395	  0.275
 17.883	  0.385	  0.265
 17.891	  0.375	  0.265
 17.898	  0.375	  0.255
 17.906	  0.365	  0.255
 17.914	  0.355	  0.245
 17.922	  0.345	  0.235
 17.930	  0.345	  0.235
 17.938	  0.345	  0.225
 17.945	  0.335	  0.225
 17.953	  0.325	  0.215
 17.961	  0.325	  0.205
 17.969	  0.315	  0.205
 17.977	  0.305	  0.205
 17.984	  0.305	  0.195
 17.992	  0.295	  0.185
 18.000	  0.295	  0.185
 18.008	  0.285	  0.175
 18.016	  0.285	  0.175
 18.023	  0.275	  0.165
 18.031	  0.265	  0.165
 18.039	  0.265	  0.155
 18.047	  0.255	  0.145
 18.055	  0.245	  0.145
 18.062	  0.245	  0.135
 18.070	  0.235	  0.135
 18.078	  0.235	  0.125
 18.086	  0.225	  0.125
 18.094	  0.215	  0.125
 18.102	  0.215	  0.125
 18.109	  0.205	  0.105
 18.117	  0.205	  0.105
 18.125	  0.195	  0.105
 18.133	  0.185	  0.095
 18.141	  0.175	  0.085
 18.148	  0.155	  0.075
 18.156	 -0.385	 -0.475
 18.164	 -0.635	 -0.645
 18.172	 -0.605	 -0.625
 18.180	 -0.595	 -0.625
 18.188	 -0.595	 -0.615
 18.195	 -0.585	 -0.605
 18.203	 -0.585	 -0.605
 18.211	 -0.575	 -0.595
 18.219	 -0.565	 -0.585
 18.227	 -0.565	 -0.575
 18.234	 -0.545	 -0.575
 18.242	 -0.545	 -0.565
 18.250	 -0.535	 -0.555
 18.258	 -0.525	 -0.545
 18.266	 -0.525	 -0.545
 18.273	 -0.515	 -0.535
 18.281	 -0.505	 -0.525
 18.289	 -0.495	 -0.515
 18.297	 -0.485	 -0.515
 18.305	 -0.475	 -0.505
 18.312	 -0.475	 -0.495
 18.320	 -0.465	 -0.495
 18.328	 -0.455	 -0.495
 18.336	 -0.445	 -0.485
 18.344	 -0.435	 -0.475
 18.352	 -0.435	 -0.465
 18.359	 -0.435	 -0.465
 18.367	 -0.425	 -0.455
 18.375	 -0.415	 -0.445
 18.383	 -0.405	 -0.435
 18.391	 -0.405	 -0.435
 18.398	 -0.395	 -0.425
 18.406	 -0.385	 -0.425
 18.414	 -0.375	 -0.415
 18.422	 -0.375	 -0.415
 18.430	 -0.365	 -0.405
 18.438	 -0.365	 -0.395
 18.445	 -0.355	 -0.395
 18.453	 -0.345	 -0.395
 18.461	 -0.335	 -0.385
 18.469	 -0.335	 -0.375
 18.477	 -0.325	 -0.365
 18.484	 -0.325	 -0.365
 18.492	 -0.315	 -0.355
 18.500	 -0.305	 -0.355
 18.508	 -0.305	 -0.345
 18.516	 -0.295	 -0.345
 18.523	 -0.295	 -0.345
 18.531	 -0.285	 -0.335
 18.539	 -0.285	 -0.325
 18.547	 -0.285	 -0.325
 18.555	 -0.275	 -0.325
 18.562	 -0.265	 -0.315
 18.570	 -0.265	 -0.305
 18.578	 -0.265	 -0.305
 18.586	 -0.255	 -0.305
 18.594	 -0.245	 -0.295
 18.602	 -0.235	 -0.285
 18.609	 -0.245	 -0.285
 18.617	 -0.225	 -0.285
 18.625	 -0.225	 -0.275
 18.633	 -0.215	 -0.265
 18.641	 -0.205	 -0.265
 18.648	 -0.185	 -0.245
 18.656	 -0.115	 -0.075
 18.664	  0.595	  0.485
 18.672	  0.575	  0.465
 18.680	  0.565	  0.455
 18.688	  0.565	  0.445
 18.695	  0.555	  0.445
 18.703	  0.545	  0.435
 18.711	  0.545	  0.435
 18.719	  0.535	  0.425
 18.727	  0.525	  0.415
 18.734	  0.515	  0.405
 18.742	  0.505	  0.395
 18.750	  0.495	  0.385
 18.758	  0.495	  0.385
 18.766	  0.485	  0.375
 18.773	  0.475	  0.365
 18.781	  0.465	  0.365
 18.789	  0.455	  0.355
 18.797	  0.445	  0.345
 18.805	  0.445	  0.345
 18.812	  0.435	  0.335
 18.820	  0.425	  0.325
 18.828	  0.415	  0.325
 18.836	  0.405	  0.315
 18.844	  0.395	  0.315
 18.852	  0.395	  0.305
 18.859	  0.385	  0.305
 18.867	  0.375	  0.295
 18.875	  0.365	  0.285
 18.883	  0.365	  0.285
 18.891	  0.355	  0.275
 18.898	  0.355	  0.265
 18.906	  0.345	  0.265
 18.914	  0.335	  0.265
 18.922	  0.325	  0.255
 18.930	  0.325	  0.245
 18.938	  0.325	  0.235
 18.945	  0.315	  0.235
 18.953	  0.305	  0.235
 18.961	  0.305	  0.225
 18.969	  0.305	  0.215
 18.977	  0.295	  0.215
 18.984	  0.285	  0.215
 18.992	  0.285	  0.205
 19.000	  0.285	  0.205
 19.008	  0.275	  0.195
 19.016	  0.265	  0.195
 19.023	  0.265	  0.185
 19.031	  0.265	  0.175
 19.039	  0.265	  0.185
 19.047	  0.245	  0.175
 19.055	  0.245	  0.165
 19.062	  0.245	  0.165
 19.070	  0.235	  0.155
 19.078	  0.235	  0.145
 19.086	  0.235	  0.155
 19.094	  0.225	  0.145
 19.102	  0.225	  0.145
 19.109	  0.215	  0.135
 19.117	  0.215	  0.125
 19.125	  0.205	  0.125
 19.133	  0.195	  0.125
 19.141	  0.185	  0.105
 19.148	  0.175	  0.105
 19.156	  0.195	  0.145
 19.164	 -0.615	 -0.625
 19.172	 -0.605	 -0.615
 19.180	 -0.585	 -0.605
 19.188	 -0.585	 -0.595
 19.195	 -0.575	 -0.585
 19.203	 -0.575	 -0.585
 19.211	 -0.565	 -0.575
 19.219	 -0.555	 -0.575
 19.227	 -0.555	 -0.555
 19.234	 -0.545	 -0.555
 19.242	 -0.535	 -0.545
 19.250	 -0.525	 -0.535
 19.258	 -0.515	 -0.525
 19.266	 -0.515	 -0.525
 19.273	 -0.505	 -0.525
 19.281	 -0.495	 -0.505
 19.289	 -0.495	 -0.505
 19.297	 -0.485	 -0.495
 19.305	 -0.475	 -0.495
 19.312	 -0.465	 -0.485
 19.320	 -0.465	 -0.475
 19.328	 -0.455	 -0.465
 19.336	 -0.445	 -0.465
 19.344	 -0.445	 -0.455
 19.352	 -0.435	 -0.445
 19.359	 -0.425	 -0.445
 19.367	 -0.425	 -0.435
 19.375	 -0.415	 -0.425
 19.383	 -0.405	 -0.415
 19.391	 -0.405	 -0.415
 19.398	 -0.395	 -0.405
 19.406	 -0.385	 -0.405
 19.414	 -0.375	 -0.395
 19.422	 -0.375	 -0.385
 19.430	 -0.365	 -0.385
 19.438	 -0.365	 -0.375
 19.445	 -0.355	 -0.375
 19.453	 -0.355	 -0.375
 19.461	 -0.345	 -0.365
 19.469	 -0.345	 -0.355
 19.477	 -0.335	 -0.345
 19.484	 -0.325	 -0.345
 19.492	 -0.315	 -0.345
 19.500	 -0.315	 -0.335
 19.508	 -0.305	 -0.325
 19.516	 -0.305	 -0.325
 19.523	 -0.295	 -0.315
 19.531	 -0.295	 -0.315
 19.539	 -0.295	 -0.305
 19.547	 -0.285	 -0.305
 19.555	 -0.275	 -0.295
 19.562	 -0.265	 -0.295
 19.570	 -0.265	 -0.285
 19.578	 -0.265	 -0.285
 19.586	 -0.255	 -0.275
 19.594	 -0.255	 -0.275
 19.602	 -0.245	 -0.265
 19.609	 -0.245	 -0.265
 19.617	 -0.235	 -0.265
 19.625	 -0.235	 -0.255
 19.633	 -0.225	 -0.245
 19.641	 -0.215	 -0.235
 19.648	 -0.185	 -0.225
 19.656	  0.385	  0.355
 19.664	  0.585	  0.485
 19.672	  0.565	  0.465
 19.680	  0.555	  0.465
 19.688	  0.555	  0.455
 19.695	  0.545	  0.455
 19.703	  0.535	  0.445
 19.711	  0.535	  0.435
 19.719	  0.515	  0.435
 19.727	  0.515	  0.425
 19.734	  0.505	  0.415
 19.742	  0.495	  0.415
 19.750	  0.485	  0.405
 19.758	  0.485	  0.395
 19.766	  0.475	  0.395
 19.773	  0.465	  0.385
 19.781	  0.455	  0.375
 19.789	  0.445	  0.375
 19.797	  0.445	  0.355
 19.805	  0.435	  0.355
 19.812	  0.425	  0.355
 19.820	  0.425	  0.345
 19.828	  0.415	  0.335
 19.836	  0.405	  0.335
 19.844	  0.395	  0.325
 19.852	  0.385	  0.325
 19.859	  0.385	  0.315
 19.867	  0.375	  0.305
 19.875	  0.375	  0.305
 19.883	  0.365	  0.295
 19.891	  0.365	  0.285
 19.898	  0.345	  0.285
 19.906	  0.345	  0.275
 19.914	  0.345	  0.275
 19.922	  0.335	  0.265
 19.930	  0.325	  0.255
 19.938	  0.325	  0.255
 19.945	  0.315	  0.255
 19.953	  0.305	  0.245
 19.961	  0.305	  0.235
 19.969	  0.295	  0.235
 19.977	  0.295	  0.225
 19.984	  0.285	  0.215
 19.992	  0.275	  0.215
 20.000	  0.265	  0.215
 20.008	  0.265	  0.205
 20.016	  0.265	  0.195
 20.023	  0.255	  0.195
 20.031	  0.245	  0.195
 20.039	  0.245	  0.185
 20.047	  0.245	  0.175
 20.055	  0.235	  0.175
 20.062	  0.225	  0.175
 20.070	  0.225	  0.165
 20.078	  0.215	  0.155
 20.086	  0.215	  0.155
 20.094	  0.205	  0.155
 20.102	  0.195	  0.155
 20.109	  0.195	  0.145
 20.117	  0.185	  0.135
 20.125	  0.175	  0.135
 20.133	  0.175	  0.125
 20.141	  0.165	  0.115
 20.148	  0.145	  0.105
 20.156	  0.105	 -0.025
 20.164	 -0.675	 -0.615
 20.172	 -0.635	 -0.605
 20.180	 -0.625	 -0.595
 20.188	 -0.615	 -0.585
 20.195	 -0.615	 -0.575
 20.203	 -0.605	 -0.575
 20.211	 -0.595	 -0.565
 20.219	 -0.595	 -0.555
 20.227	 -0.585	 -0.545
 20.234	 -0.575	 -0.545
 20.242	 -0.565	 -0.535
 20.250	 -0.565	 -0.525
 20.258	 -0.555	 -0.525
 20.266	 -0.555	 -0.515
 20.273	 -0.535	 -0.505
 20.281	 -0.525	 -0.505
 20.289	 -0.515	 -0.495
 20.297	 -0.515	 -0.495
 20.305	 -0.495	 -0.485
 20.312	 -0.495	 -0.475
 20.320	 -0.485	 -0.465
 20.328	 -0.485	 -0.465
 20.336	 -0.465	 -0.455
 20.344	 -0.465	 -0.455
 20.352	 -0.455	 -0.445
 20.359	 -0.455	 -0.435
 20.367	 -0.445	 -0.435
 20.375	 -0.435	 -0.425
 20.383	 -0.435	 -0.415
 20.391	 -0.425	 -0.415
 20.398	 -0.425	 -0.415
 20.406	 -0.415	 -0.405
 20.414	 -0.415	 -0.395
 20.422	 -0.405	 -0.395
 20.430	 -0.395	 -0.385
 20.438	 -0.395	 -0.385
 20.445	 -0.385	 -0.375
 20.453	 -0.385	 -0.375
 20.461	 -0.375	 -0.365
 20.469	 -0.375	 -0.355
 20.477	 -0.365	 -0.355
 20.484	 -0.365	 -0.345
 20.492	 -0.355	 -0.345
 20.500	 -0.345	 -0.345
 20.508	 -0.345	 -0.335
 20.516	 -0.335	 -0.335
 20.523	 -0.335	 -0.325
 20.531	 -0.325	 -0.325
 20.539	 -0.325	 -0.315
 20.547	 -0.315	 -0.315
 20.555	 -0.305	 -0.305
 20.562	 -0.305	 -0.295
 20.570	 -0.305	 -0.295
 20.578	 -0.295	 -0.295
 20.586	 -0.285	 -0.285
 20.594	 -0.285	 -0.285
 20.602	 -0.275	 -0.275
 20.609	 -0.275	 -0.275
 20.617	 -0.265	 -0.275
 20.625	 -0.255	 -0.265
 20.633	 -0.255	 -0.255
 20.641	 -0.245	 -0.255
 20.648	 -0.225	 -0.235
 20.656	  0.135	  0.205
 20.664	  0.585	  0.485
 20.672	  0.545	  0.465
 20.680	  0.535	  0.455
 20.688	  0.525	  0.445
 20.695	  0.525	  0.445
 20.703	  0.515	  0.435
 20.711	  0.505	  0.435
 20.719	  0.505	  0.425
 20.727	  0.485	  0.415
 20.734	  0.485	  0.405
 20.742	  0.475	  0.395
 20.750	  0.465	  0.395
 20.758	  0.465	  0.385
 20.766	  0.455	  0.375
 20.773	  0.445	  0.375
 20.781	  0.435	  0.365
 20.789	  0.425	  0.355
 20.797	  0.425	  0.345
 20.805	  0.415	  0.345
 20.812	  0.405	  0.335
 20.820	  0.385	  0.335
 20.828	  0.385	  0.325
 20.836	  0.385	  0.315
 20.844	  0.365	  0.315
 20.852	  0.365	  0.305
 20.859	  0.355	  0.295
 20.867	  0.355	  0.285
 20.875	  0.345	  0.285
 20.883	  0.335	  0.275
 20.891	  0.325	  0.265
 20.898	  0.315	  0.265
 20.906	  0.315	  0.255
 20.914	  0.305	  0.255
 20.922	  0.295	  0.235
 20.930	  0.295	  0.235
 20.938	  0.285	  0.235
 20.945	  0.285	  0.225
 20.953	  0.275	  0.215
 20.961	  0.275	  0.215
 20.969	  0.255	  0.215
 20.977	  0.255	  0.205
 20.984	  0.245	  0.195
 20.992	  0.245	  0.195
 21.000	  0.235	  0.185
 21.008	  0.225	  0.185
 21.016	  0.225	  0.175
 21.023	  0.225	  0.175
 21.031	  0.215	  0.165
 21.039	  0.215	  0.165
 21.047	  0.205	  0.155
 21.055	  0.205	  0.155
 21.062	  0.195	  0.155
 21.070	  0.195	  0.145
 21.078	  0.185	  0.135
 21.086	  0.175	  0.135
 21.094	  0.175	  0.125
 21.102	  0.175	  0.125
 21.109	  0.165	  0.115
 21.117	  0.155	  0.105
 21.125	  0.155	  0.105
 21.133	  0.145	  0.095
 21.141	  0.135	  0.085
 21.148	  0.125	  0.075
 21.156	 -0.075	 -0.275
 21.164	 -0.685	 -0.655
 21.172	 -0.655	 -0.635
 21.180	 -0.645	 -0.625
 21.188	 -0.635	 -0.615
 21.195	 -0.635	 -0.605
 21.203	 -0.625	 -0.605
 21.211	 -0.615	 -0.595
 21.219	 -0.615	 -0.585
 21.227	 -0.605	 -0.585
 21.234	 -0.605	 -0.585
 21.242	 -0.585	 -0.575
 21.250	 -0.585	 -0.565
 21.258	 -0.575	 -0.555
 21.266	 -0.565	 -0.545
 21.273	 -0.555	 -0.545
 21.281	 -0.545	 -0.535
 21.289	 -0.545	 -0.525
 21.297	 -0.535	 -0.525
 21.305	 -0.525	 -0.515
 21.312	 -0.525	 -0.505
 21.320	 -0.515	 -0.505
 21.328	 -0.505	 -0.505
 21.336	 -0.505	 -0.495
 21.344	 -0.495	 -0.485
 21.352	 -0.485	 -0.475
 21.359	 -0.475	 -0.475
 21.367	 -0.465	 -0.465
 21.375	 -0.465	 -0.455
 21.383	 -0.455	 -0.455
 21.391	 -0.455	 -0.455
 21.398	 -0.445	 -0.445
 21.406	 -0.435	 -0.435
 21.414	 -0.425	 -0.425
 21.422	 -0.425	 -0.425
 21.430	 -0.415	 -0.425
 21.438	 -0.415	 -0.415
 21.445	 -0.415	 -0.415
 21.453	 -0.395	 -0.405
 21.461	 -0.395	 -0.405
 21.469	 -0.385	 -0.395
 21.477	 -0.385	 -0.385
 21.484	 -0.375	 -0.385
 21.492	 -0.365	 -0.385
 21.500	 -0.365	 -0.375
 21.508	 -0.355	 -0.375
 21.516	 -0.355	 -0.365
 21.523	 -0.345	 -0.365
 21.531	 -0.345	 -0.355
 21.539	 -0.325	 -0.355
 21.547	 -0.325	 -0.345
 21.555	 -0.325	 -0.345
 21.562	 -0.315	 -0.335
 21.570	 -0.315	 -0.335
 21.578	 -0.305	 -0.335
 21.586	 -0.305	 -0.325
 21.594	 -0.295	 -0.325
 21.602	 -0.295	 -0.315
 21.609	 -0.285	 -0.315
 21.617	 -0.275	 -0.305
 21.625	 -0.275	 -0.295
 21.633	 -0.265	 -0.295
 21.641	 -0.265	 -0.285
 21.648	 -0.245	 -0.275
 21.656	  0.135	  0.215
 21.664	  0.575	  0.455
 21.672	  0.525	  0.425
 21.680	  0.525	  0.415
 21.688	  0.505	  0.415
 21.695	  0.505	  0.405
 21.703	  0.495	  0.395
 21.711	  0.485	  0.395
 21.719	  0.475	  0.385
 21.727	  0.475	  0.385
 21.734	  0.465	  0.365
 21.742	  0.455	  0.365
 21.750	  0.455	  0.355
 21.758	  0.435	  0.355
 21.766	  0.435	  0.335
 21.773	  0.425	  0.335
 21.781	  0.415	  0.325
 21.789	  0.405	  0.325
 21.797	  0.405	  0.315
 21.805	  0.395	  0.305
 21.812	  0.385	  0.305
 21.820	  0.385	  0.295
 21.828	  0.375	  0.285
 21.836	  0.365	  0.275
 21.844	  0.355	  0.275
 21.852	  0.355	  0.265
 21.859	  0.345	  0.265
 21.867	  0.345	  0.255
 21.875	  0.325	  0.245
 21.883	  0.325	  0.245
 21.891	  0.315	  0.235
 21.898	  0.315	  0.225
 21.906	  0.305	  0.225
 21.914	  0.305	  0.225
 21.922	  0.295	  0.205
 21.930	  0.285	  0.205
 21.938	  0.285	  0.205
 21.945	  0.275	  0.195
 21.953	  0.265	  0.185
 21.961	  0.265	  0.185
 21.969	  0.255	  0.185
 21.977	  0.245	  0.175
 21.984	  0.245	  0.165
 21.992	  0.235	  0.165
 22.000	  0.225	  0.155
 22.008	  0.225	  0.155
 22.016	  0.215	  0.145
 22.023	  0.215	  0.145
 22.031	  0.205	  0.135
 22.039	  0.205	  0.135
 22.047	  0.205	  0.125
 22.055	  0.195	  0.125
 22.062	  0.195	  0.115
 22.070	  0.185	  0.115
 22.078	  0.185	  0.105
 22.086	  0.175	  0.105
 22.094	  0.165	  0.105
 22.102	  0.165	  0.095
 22.109	  0.155	  0.095
 22.117	  0.155	  0.085
 22.125	  0.145	  0.085
 22.133	  0.135	  0.075
 22.141	  0.125	  0.065
 22.148	  0.115	  0.055
 22.156	 -0.265	 -0.445
 22.164	 -0.685	 -0.665
 22.172	 -0.655	 -0.645
 22.180	 -0.645	 -0.635
 22.188	 -0.645	 -0.635
 22.195	 -0.625	 -0.625
 22.203	 -0.625	 -0.625
 22.211	 -0.625	 -0.615
 22.219	 -0.615	 -0.605
 22.227	 -0.605	 -0.595
 22.234	 -0.595	 -0.595
 22.242	 -0.585	 -0.585
 22.250	 -0.575	 -0.575
 22.258	 -0.565	 -0.565
 22.266	 -0.555	 -0.565
 22.273	 -0.545	 -0.555
 22.281	 -0.555	 -0.545
 22.289	 -0.535	 -0.545
 22.297	 -0.535	 -0.535
 22.305	 -0.525	 -0.535
 22.312	 -0.515	 -0.515
 22.320	 -0.505	 -0.515
 22.328	 -0.495	 -0.515
 22.336	 -0.485	 -0.505
 22.344	 -0.485	 -0.495
 22.352	 -0.475	 -0.485
 22.359	 -0.475	 -0.485
 22.367	 -0.465	 -0.475
 22.375	 -0.455	 -0.465
 22.383	 -0.445	 -0.465
 22.391	 -0.445	 -0.455
 22.398	 -0.435	 -0.455
 22.406	 -0.435	 -0.445
 22.414	 -0.425	 -0.435
 22.422	 -0.425	 -0.435
 22.430	 -0.415	 -0.425
 22.438	 -0.405	 -0.425
 22.445	 -0.405	 -0.415
 22.453	 -0.405	 -0.415
 22.461	 -0.395	 -0.405
 22.469	 -0.385	 -0.395
 22.477	 -0.375	 -0.385
 22.484	 -0.375	 -0.385
 22.492	 -0.365	 -0.375
 22.500	 -0.365	 -0.375
 22.508	 -0.355	 -0.365
 22.516	 -0.355	 -0.365
 22.523	 -0.345	 -0.355
 22.531	 -0.345	 -0.355
 22.539	 -0.335	 -0.345
 22.547	 -0.335	 -0.345
 22.555	 -0.325	 -0.335
 22.562	 -0.315	 -0.335
 22.570	 -0.315	 -0.325
 22.578	 -0.305	 -0.325
 22.586	 -0.295	 -0.325
 22.594	 -0.295	 -0.315
 22.602	 -0.295	 -0.305
 22.609	 -0.285	 -0.305
 22.617	 -0.275	 -0.295
 22.625	 -0.275	 -0.295
 22.633	 -0.265	 -0.285
 22.641	 -0.255	 -0.275
 22.648	 -0.235	 -0.265
 22.656	 -0.135	  0.015
 22.664	  0.575	  0.465
 22.672	  0.535	  0.435
 22.680	  0.525	  0.435
 22.688	  0.525	  0.425
 22.695	  0.515	  0.425
 22.703	  0.505	  0.415
 22.711	  0.495	  0.405
 22.719	  0.485	  0.405
 22.727	  0.485	  0.395
 22.734	  0.475	  0.385
 22.742	  0.465	  0.375
 22.750	  0.465	  0.375
 22.758	  0.445	  0.365
 22.766	  0.445	  0.355
 22.773	  0.435	  0.355
 22.781	  0.425	  0.345
 22.789	  0.405	  0.335
 22.797	  0.405	  0.335
 22.805	  0.395	  0.325
 22.812	  0.385	  0.315
 22.820	  0.385	  0.315
 22.828	  0.375	  0.305
 22.836	  0.365	  0.295
 22.844	  0.365	  0.295
 22.852	  0.355	  0.285
 22.859	  0.345	  0.275
 22.867	  0.345	  0.275
 22.875	  0.335	  0.265
 22.883	  0.325	  0.265
 22.891	  0.325	  0.255
 22.898	  0.315	  0.255
 22.906	  0.305	  0.245
 22.914	  0.305	  0.245
 22.922	  0.295	  0.235
 22.930	  0.295	  0.225
 22.938	  0.285	  0.225
 22.945	  0.275	  0.225
 22.953	  0.275	  0.215
 22.961	  0.265	  0.205
 22.969	  0.265	  0.205
 22.977	  0.265	  0.205
 22.984	  0.245	  0.195
 22.992	  0.245	  0.195
 23.000	  0.235	  0.185
 23.008	  0.235	  0.185
 23.016	  0.235	  0.175
 23.023	  0.225	  0.175
 23.031	  0.225	  0.165
 23.039	  0.215	  0.165
 23.047	  0.215	  0.155
 23.055	  0.205	  0.155
 23.062	  0.205	  0.145
 23.070	  0.195	  0.145
 23.078	  0.195	  0.135
 23.086	  0.185	  0.135
 23.094	  0.185	  0.135
 23.102	  0.175	  0.125
 23.109	  0.175	  0.115
 23.117	  0.165	  0.115
 23.125	  0.165	  0.115
 23.133	  0.155	  0.105
 23.141	  0.145	  0.095
 23.148	  0.135	  0.085
 23.156	  0.005	 -0.225
 23.164	 -0.675	 -0.645
 23.172	 -0.645	 -0.615
 23.180	 -0.635	 -0.605
 23.188	 -0.625	 -0.595
 23.195	 -0.625	 -0.585
 23.203	 -0.615	 -0.585
 23.211	 -0.605	 -0.575
 23.219	 -0.605	 -0.575
 23.227	 -0.595	 -0.565
 23.234	 -0.585	 -0.565
 23.242	 -0.575	 -0.555
 23.250	 -0.565	 -0.545
 23.258	 -0.565	 -0.535
 23.266	 -0.555	 -0.525
 23.273	 -0.545	 -0.515
 23.281	 -0.535	 -0.515
 23.289	 -0.525	 -0.505
 23.297	 -0.525	 -0.505
 23.305	 -0.515	 -0.485
 23.312	 -0.505	 -0.485
 23.320	 -0.495	 -0.475
 23.328	 -0.485	 -0.465
 23.336	 -0.475	 -0.465
 23.344	 -0.475	 -0.455
 23.352	 -0.465	 -0.445
 23.359	 -0.465	 -0.445
 23.367	 -0.455	 -0.435
 23.375	 -0.445	 -0.425
 23.383	 -0.435	 -0.425
 23.391	 -0.435	 -0.415
 23.398	 -0.425	 -0.405
 23.406	 -0.415	 -0.395
 23.414	 -0.415	 -0.395
 23.422	 -0.405	 -0.395
 23.430	 -0.395	 -0.385
 23.438	 -0.395	 -0.375
 23.445	 -0.385	 -0.375
 23.453	 -0.375	 -0.365
 23.461	 -0.365	 -0.365
 23.469	 -0.365	 -0.355
 23.477	 -0.355	 -0.345
 23.484	 -0.355	 -0.345
 23.492	 -0.345	 -0.345
 23.500	 -0.335	 -0.335
 23.508	 -0.335	 -0.325
 23.516	 -0.325	 -0.325
 23.523	 -0.325	 -0.325
 23.531	 -0.315	 -0.315
 23.539	 -0.315	 -0.305
 23.547	 -0.305	 -0.305
 23.555	 -0.305	 -0.305
 23.562	 -0.295	 -0.295
 23.570	 -0.295	 -0.295
 23.578	 -0.285	 -0.285
 23.586	 -0.285	 -0.285
 23.594	 -0.275	 -0.275
 23.602	 -0.265	 -0.275
 23.609	 -0.265	 -0.265
 23.617	 -0.255	 -0.265
 23.625	 -0.255	 -0.255
 23.633	 -0.245	 -0.245
 23.641	 -0.225	 -0.245
 23.648	 -0.205	 -0.225
 23.656	  0.095	  0.235
 23.664	  0.595	  0.485
 23.672	  0.565	  0.465
 23.680	  0.545	  0.465
 23.688	  0.545	  0.455
 23.695	  0.535	  0.455
 23.703	  0.525	  0.445
 23.711	  0.525	  0.445
 23.719	  0.515	  0.435
 23.727	  0.505	  0.425
 23.734	  0.505	  0.415
 23.742	  0.495	  0.415
 23.750	  0.485	  0.405
 23.758	  0.475	  0.405
 23.766	  0.475	  0.395
 23.773	  0.465	  0.385
 23.781	  0.455	  0.385
 23.789	  0.445	  0.375
 23.797	  0.445	  0.365
 23.805	  0.435	  0.355
 23.812	  0.425	  0.355
 23.820	  0.415	  0.345
 23.828	  0.415	  0.335
 23.836	  0.415	  0.335
 23.844	  0.405	  0.325
 23.852	  0.395	  0.325
 23.859	  0.385	  0.315
 23.867	  0.385	  0.315
 23.875	  0.375	  0.305
 23.883	  0.375	  0.305
 23.891	  0.365	  0.295
 23.898	  0.355	  0.285
 23.906	  0.355	  0.285
 23.914	  0.345	  0.275
 23.922	  0.345	  0.265
 23.930	  0.335	  0.265
 23.938	  0.335	  0.265
 23.945	  0.325	  0.255
 23.953	  0.325	  0.255
 23.961	  0.315	  0.255
 23.969	  0.305	  0.245
 23.977	  0.305	  0.235
 23.984	  0.295	  0.225
 23.992	  0.295	  0.225
 24.000	  0.285	  0.225
 24.008	  0.285	  0.225
 24.016	  0.275	  0.205
 24.023	  0.265	  0.205
 24.031	  0.265	  0.205
 24.039	  0.255	  0.205
 24.047	  0.255	  0.195
 24.055	  0.255	  0.195
 24.062	  0.245	  0.185
 24.070	  0.235	  0.185
 24.078	  0.235	  0.175
 24.086	  0.235	  0.175
 24.094	  0.225	  0.165
 24.102	  0.225	  0.165
 24.109	  0.215	  0.155
 24.117	  0.215	  0.155
 24.125	  0.205	  0.145
 24.133	  0.195	  0.145
 24.141	  0.185	  0.135
 24.148	  0.175	  0.115
 24.156	  0.045	 -0.215
 24.164	 -0.625	 -0.605
 24.172	 -0.595	 -0.575
 24.180	 -0.575	 -0.565
 24.188	 -0.575	 -0.565
 24.195	 -0.575	 -0.555
 24.203	 -0.565	 -0.555
 24.211	 -0.555	 -0.545
 24.219	 -0.545	 -0.535
 24.227	 -0.535	 -0.535
 24.234	 -0.535	 -0.525
 24.242	 -0.525	 -0.515
 24.250	 -0.515	 -0.505
 24.258	 -0.505	 -0.505
 24.266	 -0.495	 -0.495
 24.273	 -0.485	 -0.485
 24.281	 -0.485	 -0.485
 24.289	 -0.465	 -0.465
 24.297	 -0.465	 -0.465
 24.305	 -0.455	 -0.465
 24.312	 -0.455	 -0.455
 24.320	 -0.445	 -0.445
 24.328	 -0.435	 -0.445
 24.336	 -0.425	 -0.435
 24.344	 -0.425	 -0.425
 24.352	 -0.415	 -0.415
 24.359	 -0.415	 -0.415
 24.367	 -0.405	 -0.405
 24.375	 -0.395	 -0.405
 24.383	 -0.385	 -0.395
 24.391	 -0.385	 -0.385
 24.398	 -0.375	 -0.385
 24.406	 -0.365	 -0.375
 24.414	 -0.355	 -0.365
 24.422	 -0.355	 -0.365
 24.430	 -0.345	 -0.355
 24.438	 -0.345	 -0.345
 24.445	 -0.335	 -0.345
 24.453	 -0.335	 -0.345
 24.461	 -0.325	 -0.335
 24.469	 -0.315	 -0.335
 24.477	 -0.305	 -0.325
 24.484	 -0.305	 -0.325
 24.492	 -0.295	 -0.315
 24.500	 -0.285	 -0.315
 24.508	 -0.285	 -0.305
 24.516	 -0.275	 -0.305
 24.523	 -0.265	 -0.295
 24.531	 -0.265	 -0.295
 24.539	 -0.265	 -0.285
 24.547	 -0.255	 -0.285
 24.555	 -0.245	 -0.275
 24.562	 -0.235	 -0.275
 24.570	 -0.235	 -0.265
 24.578	 -0.235	 -0.265
 24.586	 -0.225	 -0.255
 24.594	 -0.215	 -0.255
 24.602	 -0.205	 -0.245
 24.609	 -0.205	 -0.235
 24.617	 -0.195	 -0.235
 24.625	 -0.195	 -0.225
 24.633	 -0.185	 -0.215
 24.641	 -0.175	 -0.215
 24.648	 -0.165	 -0.205
 24.656	 -0.165	 -0.245
 24.664	  0.635	  0.505
 24.672	  0.625	  0.495
 24.680	  0.615	  0.485
 24.688	  0.605	  0.485
 24.695	  0.595	  0.475
 24.703	  0.595	  0.465
 24.711	  0.585	  0.465
 24.719	  0.575	  0.465
 24.727	  0.575	  0.455
 24.734	  0.565	  0.445
 24.742	  0.555	  0.435
 24.750	  0.555	  0.435
 24.758	  0.535	  0.425
 24.766	  0.535	  0.415
 24.773	  0.515	  0.405
 24.781	  0.515	  0.405
 24.789	  0.505	  0.405
 24.797	  0.495	  0.395
 24.805	  0.485	  0.385
 24.812	  0.485	  0.375
 24.820	  0.475	  0.375
 24.828	  0.465	  0.365
 24.836	  0.455	  0.365
 24.844	  0.445	  0.355
 24.852	  0.445	  0.355
 24.859	  0.435	  0.345
 24.867	  0.435	  0.335
 24.875	  0.425	  0.325
 24.883	  0.415	  0.325
 24.891	  0.405	  0.315
 24.898	  0.405	  0.315
 24.906	  0.395	  0.305
 24.914	  0.385	  0.305
 24.922	  0.375	  0.295
 24.930	  0.375	  0.285
 24.938	  0.365	  0.285
 24.945	  0.365	  0.275
 24.953	  0.355	  0.275
 24.961	  0.355	  0.265
 24.969	  0.335	  0.265
 24.977	  0.335	  0.255
 24.984	  0.335	  0.255
 24.992	  0.325	  0.245
 25.000	  0.315	  0.235
 25.008	  0.315	  0.235
 25.016	  0.305	  0.225
 25.023	  0.305	  0.225
 25.031	  0.295	  0.225
 25.039	  0.295	  0.215
 25.047	  0.285	  0.215
 25.055	  0.285	  0.205
 25.062	  0.275	  0.205
 25.070	  0.275	  0.195
 25.078	  0.275	  0.185
 25.086	  0.265	  0.185
 25.094	  0.255	  0.185
 25.102	  0.255	  0.175
 25.109	  0.255	  0.165
 25.117	  0.245	  0.165
 25.125	  0.235	  0.155
 25.133	  0.235	  0.155
 25.141	  0.225	  0.145
 25.148	  0.205	  0.135
 25.156	 -0.275	 -0.465
 25.164	 -0.555	 -0.575
 25.172	 -0.535	 -0.565
 25.180	 -0.535	 -0.555
 25.188	 -0.525	 -0.555
 25.195	 -0.525	 -0.545
 25.203	 -0.515	 -0.545
 25.211	 -0.515	 -0.535
 25.219	 -0.505	 -0.525
 25.227	 -0.505	 -0.515
 25.234	 -0.495	 -0.515
 25.242	 -0.485	 -0.505
 25.250	 -0.485	 -0.495
 25.258	 -0.475	 -0.485
 25.266	 -0.465	 -0.485
 25.273	 -0.465	 -0.475
 25.281	 -0.455	 -0.465
 25.289	 -0.445	 -0.455
 25.297	 -0.435	 -0.455
 25.305	 -0.425	 -0.445
 25.312	 -0.425	 -0.435
 25.320	 -0.415	 -0.425
 25.328	 -0.405	 -0.425
 25.336	 -0.405	 -0.415
 25.344	 -0.395	 -0.415
 25.352	 -0.385	 -0.405
 25.359	 -0.385	 -0.405
 25.367	 -0.365	 -0.395
 25.375	 -0.365	 -0.385
 25.383	 -0.355	 -0.375
 25.391	 -0.345	 -0.375
 25.398	 -0.345	 -0.365
 25.406	 -0.335	 -0.365
 25.414	 -0.325	 -0.355
 25.422	 -0.315	 -0.355
 25.430	 -0.305	 -0.345
 25.438	 -0.305	 -0.335
 25.445	 -0.285	 -0.325
 25.453	 -0.295	 -0.325
 25.461	 -0.285	 -0.315
 25.469	 -0.275	 -0.315
 25.477	 -0.265	 -0.305
 25.484	 -0.265	 -0.305
 25.492	 -0.255	 -0.295
 25.500	 -0.255	 -0.295
 25.508	 -0.245	 -0.285
 25.516	 -0.245	 -0.285
 25.523	 -0.235	 -0.275
 25.531	 -0.235	 -0.265
 25.539	 -0.225	 -0.255
 25.547	 -0.225	 -0.255
 25.555	 -0.215	 -0.245
 25.562	 -0.215	 -0.245
 25.570	 -0.215	 -0.235
 25.578	 -0.215	 -0.235
 25.586	 -0.205	 -0.225
 25.594	 -0.205	 -0.215
 25.602	 -0.195	 -0.215
 25.609	 -0.195	 -0.215
 25.617	 -0.195	 -0.205
 25.625	 -0.185	 -0.195
 25.633	 -0.175	 -0.185
 25.641	 -0.165	 -0.185
 25.648	 -0.155	 -0.165
 25.656	 -0.175	  0.015
 25.664	  0.655	  0.565
 25.672	  0.625	  0.545
 25.680	  0.615	  0.535
 25.688	  0.605	  0.535
 25.695	  0.605	  0.535
 25.703	  0.585	  0.515
 25.711	  0.585	  0.515
 25.719	  0.575	  0.515
 25.727	  0.575	  0.505
 25.734	  0.565	  0.495
 25.742	  0.555	  0.485
 25.750	  0.545	  0.485
 25.758	  0.535	  0.475
 25.766	  0.525	  0.465
 25.773	  0.525	  0.465
 25.781	  0.515	  0.455
 25.789	  0.505	  0.455
 25.797	  0.495	  0.445
 25.805	  0.495	  0.445
 25.812	  0.485	  0.435
 25.820	  0.475	  0.435
 25.828	  0.475	  0.425
 25.836	  0.465	  0.415
 25.844	  0.455	  0.415
 25.852	  0.455	  0.415
 25.859	  0.445	  0.405
 25.867	  0.445	  0.395
 25.875	  0.435	  0.395
 25.883	  0.425	  0.385
 25.891	  0.415	  0.385
 25.898	  0.415	  0.385
 25.906	  0.405	  0.375
 25.914	  0.395	  0.375
 25.922	  0.395	  0.365
 25.930	  0.385	  0.365
 25.938	  0.375	  0.355
 25.945	  0.375	  0.355
 25.953	  0.365	  0.345
 25.961	  0.355	  0.345
 25.969	  0.355	  0.335
 25.977	  0.345	  0.335
 25.984	  0.345	  0.325
 25.992	  0.335	  0.325
 26.000	  0.325	  0.315
 26.008	  0.325	  0.315
 26.016	  0.325	  0.315
 26.023	  0.315	  0.305
 26.031	  0.305	  0.305
 26.039	  0.305	  0.305
 26.047	  0.295	  0.295
 26.055	  0.295	  0.295
 26.062	  0.285	  0.295
 26.070	  0.285	  0.295
 26.078	  0.275	  0.285
 26.086	  0.265	  0.275
 26.094	  0.265	  0.275
 26.102	  0.265	  0.275
 26.109	  0.255	  0.265
 26.117	  0.255	  0.265
 26.125	  0.245	  0.255
 26.133	  0.235	  0.255
 26.141	  0.235	  0.245
 26.148	  0.215	  0.235
 26.156	  0.185	  0.005
 26.164	 -0.605	 -0.465
 26.172	 -0.555	 -0.445
 26.180	 -0.545	 -0.435
 26.188	 -0.535	 -0.425
 26.195	 -0.535	 -0.415
 26.203	 -0.525	 -0.415
 26.211	 -0.515	 -0.405
 26.219	 -0.515	 -0.395
 26.227	 -0.505	 -0.385
 26.234	 -0.505	 -0.375
 26.242	 -0.495	 -0.375
 26.250	 -0.485	 -0.365
 26.258	 -0.475	 -0.355
 26.266	 -0.465	 -0.355
 26.273	 -0.455	 -0.345
 26.281	 -0.455	 -0.335
 26.289	 -0.445	 -0.325
 26.297	 -0.435	 -0.325
 26.305	 -0.425	 -0.315
 26.312	 -0.415	 -0.305
 26.320	 -0.415	 -0.305
 26.328	 -0.405	 -0.295
 26.336	 -0.395	 -0.285
 26.344	 -0.385	 -0.285
 26.352	 -0.385	 -0.275
 26.359	 -0.385	 -0.265
 26.367	 -0.375	 -0.265
 26.375	 -0.365	 -0.255
 26.383	 -0.355	 -0.245
 26.391	 -0.355	 -0.245
 26.398	 -0.345	 -0.235
 26.406	 -0.335	 -0.225
 26.414	 -0.325	 -0.225
 26.422	 -0.325	 -0.225
 26.430	 -0.325	 -0.215
 26.438	 -0.315	 -0.205
 26.445	 -0.305	 -0.195
 26.453	 -0.305	 -0.195
 26.461	 -0.295	 -0.185
 26.469	 -0.285	 -0.175
 26.477	 -0.275	 -0.175
 26.484	 -0.275	 -0.175
 26.492	 -0.265	 -0.165
 26.500	 -0.265	 -0.155
 26.508	 -0.255	 -0.145
 26.516	 -0.255	 -0.145
 26.523	 -0.245	 -0.135
 26.531	 -0.235	 -0.125
 26.539	 -0.235	 -0.125
 26.547	 -0.225	 -0.125
 26.555	 -0.225	 -0.115
 26.562	 -0.215	 -0.105
 26.570	 -0.215	 -0.095
 26.578	 -0.205	 -0.105
 26.586	 -0.195	 -0.085
 26.594	 -0.195	 -0.085
 26.602	 -0.185	 -0.075
 26.609	 -0.185	 -0.075
 26.617	 -0.175	 -0.065
 26.625	 -0.175	 -0.055
 26.633	 -0.155	 -0.055
 26.641	 -0.155	 -0.045
 26.648	 -0.135	 -0.025
 26.656	  0.185	  0.465
 26.664	  0.665	  0.695
 26.672	  0.635	  0.665
 26.680	  0.625	  0.665
 26.688	  0.615	  0.655
 26.695	  0.605	  0.655
 26.703	  0.595	  0.635
 26.711	  0.585	  0.635
 26.719	  0.575	  0.635
 26.727	  0.565	  0.625
 26.734	  0.555	  0.615
 26.742	  0.545	  0.605
 26.750	  0.545	  0.605
 26.758	  0.535	  0.595
 26.766	  0.525	  0.585
 26.773	  0.515	  0.585
 26.781	  0.505	  0.575
 26.789	  0.495	  0.575
 26.797	  0.495	  0.565
 26.805	  0.485	  0.555
 26.812	  0.475	  0.555
 26.820	  0.475	  0.545
 26.828	  0.465	  0.535
 26.836	  0.455	  0.535
 26.844	  0.445	  0.535
 26.852	  0.445	  0.525
 26.859	  0.435	  0.515
 26.867	  0.425	  0.505
 26.875	  0.415	  0.505
 26.883	  0.415	  0.505
 26.891	  0.405	  0.495
 26.898	  0.405	  0.485
 26.906	  0.395	  0.485
 26.914	  0.385	  0.475
 26.922	  0.375	  0.465
 26.930	  0.375	  0.465
 26.938	  0.365	  0.465
 26.945	  0.355	  0.455
 26.953	  0.355	  0.445
 26.961	  0.345	  0.445
 26.969	  0.345	  0.435
 26.977	  0.335	  0.435
 26.984	  0.335	  0.425
 26.992	  0.325	  0.425
 27.000	  0.325	  0.415
 27.008	  0.315	  0.415
 27.016	  0.305	  0.405
 27.023	  0.305	  0.395
 27.031	  0.295	  0.395
 27.039	  0.295	  0.395
 27.047	  0.285	  0.385
 27.055	  0.285	  0.385
 27.062	  0.275	  0.375
 27.070	  0.275	  0.375
 27.078	  0.265	  0.365
 27.086	  0.265	  0.365
 27.094	  0.255	  0.355
 27.102	  0.245	  0.355
 27.109	  0.235	  0.345
 27.117	  0.235	  0.335
 27.125	  0.235	  0.335
 27.133	  0.215	  0.325
 27.141	  0.205	  0.315
 27.148	  0.195	  0.305
 27.156	  0.225	  0.265
 27.164	 -0.615	 -0.425
 27.172	 -0.595	 -0.395
 27.180	 -0.575	 -0.385
 27.188	 -0.565	 -0.385
 27.195	 -0.565	 -0.375
 27.203	 -0.555	 -0.375
 27.211	 -0.545	 -0.365
 27.219	 -0.545	 -0.365
 27.227	 -0.535	 -0.355
 27.234	 -0.525	 -0.345
 27.242	 -0.515	 -0.335
 27.250	 -0.515	 -0.335
 27.258	 -0.505	 -0.325
 27.266	 -0.505	 -0.315
 27.273	 -0.495	 -0.315
 27.281	 -0.485	 -0.305
 27.289	 -0.475	 -0.295
 27.297	 -0.465	 -0.295
 27.305	 -0.455	 -0.285
 27.312	 -0.455	 -0.275
 27.320	 -0.445	 -0.275
 27.328	 -0.435	 -0.265
 27.336	 -0.435	 -0.265
 27.344	 -0.425	 -0.255
 27.352	 -0.415	 -0.245
 27.359	 -0.415	 -0.245
 27.367	 -0.405	 -0.235
 27.375	 -0.405	 -0.235
 27.383	 -0.385	 -0.225
 27.391	 -0.385	 -0.225
 27.398	 -0.375	 -0.215
 27.406	 -0.375	 -0.215
 27.414	 -0.365	 -0.205
 27.422	 -0.365	 -0.205
 27.430	 -0.355	 -0.205
 27.438	 -0.345	 -0.195
 27.445	 -0.345	 -0.185
 27.453	 -0.345	 -0.185
 27.461	 -0.335	 -0.185
 27.469	 -0.325	 -0.175
 27.477	 -0.325	 -0.165
 27.484	 -0.325	 -0.165
 27.492	 -0.315	 -0.165
 27.500	 -0.305	 -0.155
 27.508	 -0.305	 -0.145
 27.516	 -0.295	 -0.145
 27.523	 -0.295	 -0.145
 27.531	 -0.295	 -0.135
 27.539	 -0.285	 -0.135
 27.547	 -0.285	 -0.135
 27.555	 -0.275	 -0.125
 27.562	 -0.275	 -0.125
 27.570	 -0.275	 -0.115
 27.578	 -0.265	 -0.115
 27.586	 -0.255	 -0.115
 27.594	 -0.255	 -0.105
 27.602	 -0.255	 -0.105
 27.609	 -0.245	 -0.105
 27.617	 -0.235	 -0.095
 27.625	 -0.235	 -0.085
 27.633	 -0.225	 -0.085
 27.641	 -0.215	 -0.075
 27.648	 -0.185	 -0.065
 27.656	  0.245	  0.525
 27.664	  0.595	  0.655
 27.672	  0.565	  0.625
 27.680	  0.555	  0.625
 27.688	  0.545	  0.615
 27.695	  0.545	  0.615
 27.703	  0.535	  0.605
 27.711	  0.535	  0.595
 27.719	  0.515	  0.585
 27.727	  0.505	  0.585
 27.734	  0.505	  0.575
 27.742	  0.495	  0.565
 27.750	  0.485	  0.555
 27.758	  0.485	  0.545
 27.766	  0.465	  0.545
 27.773	  0.465	  0.535
 27.781	  0.455	  0.525
 27.789	  0.455	  0.525
 27.797	  0.435	  0.505
 27.805	  0.435	  0.505
 27.812	  0.425	  0.505
 27.820	  0.415	  0.495
 27.828	  0.405	  0.485
 27.836	  0.405	  0.475
 27.844	  0.395	  0.475
 27.852	  0.385	  0.465
 27.859	  0.375	  0.455
 27.867	  0.375	  0.455
 27.875	  0.365	  0.445
 27.883	  0.365	  0.445
 27.891	  0.355	  0.435
 27.898	  0.345	  0.425
 27.906	  0.345	  0.425
 27.914	  0.335	  0.415
 27.922	  0.325	  0.405
 27.930	  0.315	  0.405
 27.938	  0.305	  0.395
 27.945	  0.305	  0.395
 27.953	  0.295	  0.385
 27.961	  0.295	  0.385
 27.969	  0.285	  0.375
 27.977	  0.285	  0.375
 27.984	  0.275	  0.365
 27.992	  0.265	  0.355
 28.000	  0.265	  0.355
 28.008	  0.255	  0.355
 28.016	  0.245	  0.345
 28.023	  0.245	  0.335
 28.031	  0.245	  0.335
 28.039	  0.235	  0.335
 28.047	  0.225	  0.315
 28.055	  0.225	  0.315
 28.062	  0.215	  0.305
 28.070	  0.215	  0.305
 28.078	  0.205	  0.295
 28.086	  0.205	  0.295
 28.094	  0.195	  0.295
 28.102	  0.195	  0.285
 28.109	  0.185	  0.275
 28.117	  0.185	  0.275
 28.125	  0.175	  0.275
 28.133	  0.165	  0.265
 28.141	  0.155	  0.255
 28.148	  0.145	  0.245
 28.156	  0.175	  0.145
 28.164	 -0.685	 -0.475
 28.172	 -0.645	 -0.465
 28.180	 -0.625	 -0.455
 28.188	 -0.615	 -0.445
 28.195	 -0.605	 -0.435
 28.203	 -0.605	 -0.435
 28.211	 -0.595	 -0.425
 28.219	 -0.585	 -0.415
 28.227	 -0.575	 -0.415
 28.234	 -0.575	 -0.405
 28.242	 -0.565	 -0.405
 28.250	 -0.555	 -0.395
 28.258	 -0.545	 -0.385
 28.266	 -0.535	 -0.385
 28.273	 -0.525	 -0.375
 28.281	 -0.525	 -0.365
 28.289	 -0.515	 -0.355
 28.297	 -0.505	 -0.355
 28.305	 -0.495	 -0.345
 28.312	 -0.485	 -0.345
 28.320	 -0.475	 -0.335
 28.328	 -0.475	 -0.335
 28.336	 -0.465	 -0.325
 28.344	 -0.455	 -0.325
 28.352	 -0.445	 -0.315
 28.359	 -0.445	 -0.315
 28.367	 -0.435	 -0.305
 28.375	 -0.435	 -0.295
 28.383	 -0.435	 -0.295
 28.391	 -0.435	 -0.295
 28.398	 -0.425	 -0.285
 28.406	 -0.415	 -0.285
 28.414	 -0.415	 -0.265
 28.422	 -0.405	 -0.275
 28.430	 -0.395	 -0.265
 28.438	 -0.395	 -0.265
 28.445	 -0.385	 -0.255
 28.453	 -0.385	 -0.255
 28.461	 -0.375	 -0.245
 28.469	 -0.375	 -0.245
 28.477	 -0.365	 -0.235
 28.484	 -0.355	 -0.235
 28.492	 -0.355	 -0.235
 28.500	 -0.345	 -0.225
 28.508	 -0.335	 -0.225
 28.516	 -0.335	 -0.215
 28.523	 -0.335	 -0.215
 28.531	 -0.325	 -0.205
 28.539	 -0.315	 -0.205
 28.547	 -0.315	 -0.205
 28.555	 -0.305	 -0.195
 28.562	 -0.305	 -0.195
 28.570	 -0.295	 -0.185
 28.578	 -0.295	 -0.185
 28.586	 -0.285	 -0.185
 28.594	 -0.275	 -0.175
 28.602	 -0.275	 -0.165
 28.609	 -0.275	 -0.165
 28.617	 -0.265	 -0.165
 28.625	 -0.265	 -0.165
 28.633	 -0.245	 -0.155
 28.641	 -0.245	 -0.145
 28.648	 -0.225	 -0.135
 28.656	 -0.255	 -0.105
 28.664	  0.585	  0.595
 28.672	  0.545	  0.565
 28.680	  0.535	  0.555
 28.688	  0.525	  0.545
 28.695	  0.525	  0.535
 28.703	  0.515	  0.535
 28.711	  0.505	  0.525
 28.719	  0.495	  0.515
 28.727	  0.485	  0.515
 28.734	  0.475	  0.495
 28.742	  0.465	  0.495
 28.750	  0.455	  0.485
 28.758	  0.455	  0.475
 28.766	  0.445	  0.465
 28.773	  0.445	  0.455
 28.781	  0.425	  0.445
 28.789	  0.425	  0.445
 28.797	  0.405	  0.435
 28.805	  0.405	  0.425
 28.812	  0.395	  0.415
 28.820	  0.385	  0.405
 28.828	  0.375	  0.405
 28.836	  0.375	  0.395
 28.844	  0.365	  0.385
 28.852	  0.355	  0.385
 28.859	  0.345	  0.365
 28.867	  0.345	  0.365
 28.875	  0.335	  0.355
 28.883	  0.325	  0.355
 28.891	  0.325	  0.335
 28.898	  0.315	  0.335
 28.906	  0.305	  0.335
 28.914	  0.305	  0.325
 28.922	  0.295	  0.315
 28.930	  0.295	  0.305
 28.938	  0.285	  0.305
 28.945	  0.275	  0.295
 28.953	  0.275	  0.285
 28.961	  0.265	  0.275
 28.969	  0.255	  0.275
 28.977	  0.245	  0.265
 28.984	  0.245	  0.255
 28.992	  0.245	  0.255
 29.000	  0.235	  0.245
 29.008	  0.225	  0.245
 29.016	  0.225	  0.225
 29.023	  0.215	  0.225
 29.031	  0.205	  0.225
 29.039	  0.205	  0.215
 29.047	  0.195	  0.205
 29.055	  0.195	  0.205
 29.062	  0.185	  0.195
 29.070	  0.185	  0.195
 29.078	  0.175	  0.185
 29.086	  0.175	  0.175
 29.094	  0.165	  0.175
 29.102	  0.165	  0.165
 29.109	  0.155	  0.155
 29.117	  0.155	  0.155
 29.125	  0.145	  0.145
 29.133	  0.135	  0.145
 29.141	  0.125	  0.125
 29.148	  0.105	  0.115
 29.156	  0.045	 -0.205
 29.164	 -0.705	 -0.615
 29.172	 -0.665	 -0.595
 29.180	 -0.655	 -0.585
 29.188	 -0.645	 -0.575
 29.195	 -0.635	 -0.575
 29.203	 -0.635	 -0.575
 29.211	 -0.635	 -0.565
 29.219	 -0.625	 -0.565
 29.227	 -0.615	 -0.555
 29.234	 -0.605	 -0.555
 29.242	 -0.595	 -0.545
 29.250	 -0.595	 -0.535
 29.258	 -0.585	 -0.525
 29.266	 -0.575	 -0.525
 29.273	 -0.575	 -0.515
 29.281	 -0.555	 -0.515
 29.289	 -0.555	 -0.505
 29.297	 -0.555	 -0.505
 29.305	 -0.545	 -0.495
 29.312	 -0.535	 -0.495
 29.320	 -0.525	 -0.485
 29.328	 -0.525	 -0.485
 29.336	 -0.515	 -0.475
 29.344	 -0.505	 -0.465
 29.352	 -0.495	 -0.465
 29.359	 -0.495	 -0.465
 29.367	 -0.485	 -0.455
 29.375	 -0.475	 -0.455
 29.383	 -0.475	 -0.445
 29.391	 -0.475	 -0.445
 29.398	 -0.465	 -0.445
 29.406	 -0.455	 -0.435
 29.414	 -0.445	 -0.425
 29.422	 -0.445	 -0.425
 29.430	 -0.435	 -0.425
 29.438	 -0.425	 -0.415
 29.445	 -0.425	 -0.405
 29.453	 -0.425	 -0.405
 29.461	 -0.415	 -0.405
 29.469	 -0.405	 -0.395
 29.477	 -0.405	 -0.395
 29.484	 -0.405	 -0.395
 29.492	 -0.395	 -0.385
 29.500	 -0.385	 -0.385
 29.508	 -0.385	 -0.375
 29.516	 -0.385	 -0.375
 29.523	 -0.375	 -0.365
 29.531	 -0.365	 -0.365
 29.539	 -0.365	 -0.355
 29.547	 -0.365	 -0.355
 29.555	 -0.355	 -0.345
 29.562	 -0.355	 -0.345
 29.570	 -0.345	 -0.345
 29.578	 -0.345	 -0.335
 29.586	 -0.335	 -0.335
 29.594	 -0.335	 -0.335
 29.602	 -0.325	 -0.325
 29.609	 -0.325	 -0.325
 29.617	 -0.315	 -0.325
 29.625	 -0.315	 -0.315
 29.633	 -0.305	 -0.305
 29.641	 -0.295	 -0.305
 29.648	 -0.285	 -0.295
 29.656	 -0.325	 -0.205
 29.664	  0.535	  0.445
 29.672	  0.505	  0.415
 29.680	  0.485	  0.405
 29.688	  0.475	  0.395
 29.695	  0.475	  0.385
 29.703	  0.465	  0.375
 29.711	  0.455	  0.375
 29.719	  0.455	  0.375
 29.727	  0.445	  0.365
 29.734	  0.435	  0.355
 29.742	  0.425	  0.345
 29.750	  0.415	  0.335
 29.758	  0.405	  0.325
 29.766	  0.405	  0.315
 29.773	  0.395	  0.305
 29.781	  0.375	  0.305
 29.789	  0.375	  0.295
 29.797	  0.365	  0.285
 29.805	  0.365	  0.285
 29.812	  0.345	  0.275
 29.820	  0.345	  0.265
 29.828	  0.335	  0.255
 29.836	  0.325	  0.245
 29.844	  0.315	  0.245
 29.852	  0.305	  0.235
 29.859	  0.305	  0.225
 29.867	  0.295	  0.225
 29.875	  0.285	  0.215
 29.883	  0.285	  0.215
 29.891	  0.275	  0.205
 29.898	  0.265	  0.195
 29.906	  0.265	  0.195
 29.914	  0.255	  0.185
 29.922	  0.245	  0.175
 29.930	  0.245	  0.175
 29.938	  0.235	  0.175
 29.945	  0.225	  0.165
 29.953	  0.215	  0.155
 29.961	  0.215	  0.155
 29.969	  0.205	  0.145
 29.977	  0.205	  0.145
 29.984	  0.195	  0.135
 29.992	  0.195	  0.125
 30.000	  0.185	  0.125
 30.008	  0.175	  0.115
 30.016	  0.175	  0.105
 30.023	  0.175	  0.105
 30.031	  0.155	  0.095
 30.039	  0.155	  0.095
 30.047	  0.155	  0.085
 30.055	  0.145	  0.085
 30.062	  0.145	  0.075
 30.070	  0.135	  0.065
 30.078	  0.125	  0.065
 30.086	  0.125	  0.055
 30.094	  0.115	  0.045
 30.102	  0.105	  0.035
 30.109	  0.095	  0.025
 30.117	  0.075	  0.005
 30.125	  0.095	 -0.115
 30.133	 -1.155	 -1.460
 30.141	 -1.435	 -1.640
 30.148	 -1.465	 -1.680
 30.156	 -1.475	 -1.720
 30.164	 -1.475	 -1.740
 30.172	 -1.475	 -1.760
 30.180	 -1.475	 -1.760
 30.188	 -1.465	 -1.770
 30.195	 -1.455	 -1.770
 30.203	 -1.435	 -1.780
 30.211	 -1.405	 -1.780
 30.219	 -1.385	 -1.770
 30.227	 -1.055	 -1.765
 30.234	 -0.465	 -1.785
 30.242	  0.025	 -1.795
 30.250	 -0.675	 -1.795
 30.258	 -1.375	 -1.780
 30.266	 -1.315	 -1.780
 30.273	 -1.285	 -1.770
 30.281	 -1.275	 -1.770
 30.289	 -1.265	 -1.755
 30.297	 -1.265	 -1.755
 30.305	 -1.255	 -1.755
 30.312	 -1.255	 -1.755
 30.320	 -1.235	 -1.750
 30.328	 -1.205	 -1.750
 30.336	 -1.175	 -1.740
 30.344	 -1.155	 -1.740
 30.352	 -1.125	 -1.725
 30.359	 -1.115	 -1.725
 30.367	 -1.085	 -1.725
 30.375	 -1.055	 -1.725
 30.383	 -1.035	 -1.720
 30.391	 -0.995	 -1.720
 30.398	 -0.965	 -1.710
 30.406	 -0.925	 -1.710
 30.414	 -0.875	 -1.695
 30.422	 -0.845	 -1.695
 30.430	 -0.795	 -1.695
 30.438	 -0.745	 -1.685
 30.445	 -0.695	 -1.690
 30.453	 -0.625	 -1.690
 30.461	 -0.575	 -1.680
 30.469	 -0.545	 -1.670
 30.477	 -0.515	 -1.665
 30.484	 -0.505	 -1.665
 30.492	 -0.545	 -1.655
 30.500	 -0.575	 -1.645
 30.508	 -0.665	 -1.650
 30.516	 -0.705	 -1.640
 30.523	 -0.765	 -1.630
 30.531	 -0.785	 -1.620
 30.539	 -0.805	 -1.615
 30.547	 -0.825	 -1.605
 30.555	 -0.815	 -1.605
 30.562	 -0.815	 -1.595
 30.570	 -0.815	 -1.590
 30.578	 -0.805	 -1.590
 30.586	 -0.785	 -1.580
 30.594	 -0.775	 -1.570
 30.602	 -0.755	 -1.555
 30.609	 -0.755	 -1.555
 30.617	 -0.745	 -1.545
 30.625	 -0.735	 -1.535
 30.633	 -0.735	 -1.540
 30.641	 -0.715	 -1.540
 30.648	 -0.705	 -1.520
 30.656	 -0.675	 -1.520
 30.664	 -0.665	 -1.495
 30.672	 -0.665	 -1.495
 30.680	 -0.665	 -1.485
 30.688	 -0.665	 -1.475
 30.695	 -0.665	 -1.470
 30.703	 -0.645	 -1.460
 30.711	 -0.635	 -1.450
 30.719	 -0.625	 -1.440
 30.727	 -0.605	 -1.425
 30.734	 -0.605	 -1.415
 30.742	 -0.605	 -1.405
 30.750	 -0.595	 -1.395
 30.758	 -0.595	 -1.390
 30.766	 -0.575	 -1.380
 30.773	 -0.555	 -1.370
 30.781	 -0.555	 -1.360
 30.789	 -0.535	 -1.345
 30.797	 -0.535	 -1.325
 30.805	 -0.525	 -1.315
 30.812	 -0.525	 -1.295
 30.820	 -0.495	 -1.270
 30.828	 -0.445	 -1.260
 30.836	 -0.425	 -1.230
 30.844	 -0.375	 -1.230
 30.852	 -0.335	 -1.215
 30.859	 -0.345	 -1.215
 30.867	 -0.375	 -1.205
 30.875	 -0.375	 -1.205
 30.883	 -0.405	 -1.200
 30.891	 -0.395	 -1.190
 30.898	 -0.435	 -1.180
 30.906	 -0.445	 -1.160
 30.914	 -0.425	 -1.145
 30.922	 -0.435	 -1.135
 30.930	 -0.435	 -1.115
 30.938	 -0.435	 -1.105
 30.945	 -0.435	 -1.100
 30.953	 -0.425	 -1.090
 30.961	 -0.395	 -1.070
 30.969	 -0.395	 -1.060
 30.977	 -0.375	 -1.035
 30.984	 -0.375	 -0.905
 30.992	 -0.185	 -0.795
 31.000	  0.185	 -1.035
 31.008	  0.785	 -1.400
 31.016	  0.975	 -1.420
 31.023	  0.135	 -1.330
 31.031	 -0.395	 -1.120
 31.039	 -0.325	 -0.975
 31.047	 -0.315	 -0.925
 31.055	 -0.325	 -0.875
 31.062	 -0.335	 -0.865
 31.070	 -0.335	 -0.840
 31.078	 -0.315	 -0.830
 31.086	 -0.305	 -0.820
 31.094	 -0.295	 -0.800
 31.102	 -0.275	 -0.785
 31.109	 -0.285	 -0.785
 31.117	 -0.265	 -0.765
 31.125	 -0.265	 -0.765
 31.133	 -0.245	 -0.760
 31.141	 -0.215	 -0.760
 31.148	 -0.205	 -0.750
 31.156	 -0.165	 -0.740
 31.164	 -0.145	 -0.725
 31.172	 -0.135	 -0.725
 31.180	 -0.105	 -0.715
 31.188	 -0.085	 -0.715
 31.195	 -0.025	 -0.710
 31.203	  0.015	 -0.710
 31.211	  0.075	 -0.720
 31.219	  0.135	 -0.710
 31.227	  0.165	 -0.715
 31.234	  0.185	 -0.715
 31.242	  0.205	 -0.715
 31.250	  0.195	 -0.705
 31.258	  0.175	 -0.690
 31.266	  0.125	 -0.670
 31.273	  0.055	 -0.650
 31.281	 -0.005	 -0.620
 31.289	 -0.075	 -0.585
 31.297	 -0.145	 -0.565
 31.305	 -0.185	 -0.535
 31.312	 -0.235	 -0.545
 31.320	 -0.225	 -0.540
 31.328	 -0.225	 -0.530
 31.336	 -0.225	 -0.520
 31.344	 -0.205	 -0.510
 31.352	 -0.225	 -0.505
 31.359	 -0.215	 -0.505
 31.367	 -0.205	 -0.495
 31.375	 -0.225	 -0.485
 31.383	 -0.195	 -0.480
 31.391	 -0.195	 -0.470
 31.398	 -0.195	 -0.460
 31.406	 -0.145	 -0.440
 31.414	 -0.135	 -0.415
 31.422	 -0.165	 -0.415
 31.430	 -0.155	 -0.395
 31.438	 -0.155	 -0.395
 31.445	 -0.165	 -0.395
 31.453	 -0.165	 -0.415
 31.461	 -0.185	 -0.415
 31.469	 -0.175	 -0.415
 31.477	 -0.165	 -0.405
 31.484	 -0.165	 -0.405
 31.492	 -0.175	 -0.395
 31.500	 -0.165	 -0.395
 31.508	 -0.165	 -0.385
 31.516	 -0.155	 -0.385
 31.523	 -0.145	 -0.375
 31.531	 -0.135	 -0.365
 31.539	 -0.125	 -0.355
 31.547	 -0.145	 -0.355
 31.555	 -0.115	 -0.325
 31.562	 -0.075	 -0.295
 31.570	 -0.085	 -0.285
 31.578	 -0.015	 -0.285
 31.586	  0.005	 -0.285
 31.594	  0.015	 -0.305
 31.602	 -0.015	 -0.295
 31.609	 -0.035	 -0.315
 31.617	 -0.045	 -0.305
 31.625	 -0.075	 -0.305
 31.633	 -0.115	 -0.315
 31.641	 -0.125	 -0.315
 31.648	 -0.125	 -0.305
 31.656	 -0.125	 -0.305
 31.664	 -0.095	 -0.295
 31.672	 -0.105	 -0.285
 31.680	 -0.105	 -0.275
 31.688	 -0.105	 -0.275
 31.695	 -0.105	 -0.265
 31.703	 -0.085	 -0.255
 31.711	 -0.065	 -0.255
 31.719	 -0.075	 -0.135
 31.727	  0.055	  0.005
 31.734	  0.375	 -0.075
 31.742	  0.995	 -0.745
 31.750	  1.435	 -0.935
 31.758	  0.605	 -0.825
 31.766	 -0.195	 -0.495
 31.773	 -0.065	 -0.305
 31.781	 -0.035	 -0.225
 31.789	 -0.025	 -0.165
 31.797	 -0.045	 -0.145
 31.805	 -0.045	 -0.135
 31.812	 -0.055	 -0.125
 31.820	 -0.055	 -0.115
 31.828	 -0.045	 -0.115
 31.836	 -0.035	 -0.105
 31.844	 -0.005	 -0.105
 31.852	  0.005	 -0.095
 31.859	  0.005	 -0.105
 31.867	  0.015	 -0.095
 31.875	  0.035	 -0.095
 31.883	  0.035	 -0.085
 31.891	  0.065	 -0.095
 31.898	  0.075	 -0.095
 31.906	  0.105	 -0.095
 31.914	  0.155	 -0.095
 31.922	  0.165	 -0.095
 31.930	  0.205	 -0.105
 31.938	  0.265	 -0.125
 31.945	  0.305	 -0.135
 31.953	  0.345	 -0.145
 31.961	  0.385	 -0.155
 31.969	  0.405	 -0.155
 31.977	  0.435	 -0.155
 31.984	  0.425	 -0.145
 31.992	  0.395	 -0.135
 32.000	  0.335	 -0.105
 32.008	  0.235	 -0.085
 32.016	  0.165	 -0.065
 32.023	  0.085	 -0.045
 32.031	  0.025	 -0.025
 32.039	 -0.005	 -0.025
 32.047	 -0.035	 -0.025
 32.055	 -0.045	 -0.015
 32.062	 -0.045	 -0.015
 32.070	 -0.065	 -0.015
 32.078	 -0.055	 -0.015
 32.086	 -0.055	 -0.015
 32.094	 -0.025	  0.005
 32.102	 -0.035	  0.005
 32.109	 -0.025	 -0.005
 32.117	 -0.025	  0.005
 32.125	 -0.025	 -0.005
 32.133	 -0.005	 -0.005
 32.141	 -0.005	 -0.005
 32.148	  0.005	  0.005
 32.156	  0.015	  0.005
 32.164	  0.015	  0.005
 32.172	  0.005	  0.005
 32.180	  0.005	  0.005
 32.188	 -0.005	  0.015
 32.195	 -0.005	  0.015
 32.203	 -0.005	  0.005
 32.211	  0.005	  0.015
 32.219	  0.015	  0.015
 32.227	  0.015	  0.015
 32.234	  0.005	  0.015
 32.242	  0.025	  0.035
 32.250	  0.035	  0.065
 32.258	  0.055	  0.085
 32.266	  0.105	  0.085
 32.273	  0.155	  0.085
 32.281	  0.165	  0.075
 32.289	  0.115	  0.065
 32.297	  0.095	  0.045
 32.305	  0.085	  0.045
 32.312	  0.045	  0.045
 32.320	  0.025	  0.035
 32.328	 -0.005	  0.035
 32.336	 -0.015	  0.035
 32.344	 -0.025	  0.035
 32.352	 -0.025	  0.035
 32.359	 -0.025	  0.025
 32.367	 -0.015	  0.035
 32.375	 -0.025	  0.035
 32.383	 -0.025	  0.045
 32.391	 -0.015	  0.045
 32.398	  0.015	  0.045
 32.406	  0.015	  0.055
 32.414	  0.005	  0.255
 32.422	  0.275	  0.285
 32.430	  0.565	 -0.005
 32.438	  1.275	 -0.665
 32.445	  1.405	 -0.785
 32.453	  0.385	 -0.505
 32.461	 -0.065	 -0.165
 32.469	  0.005	  0.015
 32.477	  0.055	  0.065
 32.484	  0.025	  0.105
 32.492	  0.025	  0.125
 32.500	  0.005	  0.135
 32.508	  0.005	  0.135
 32.516	  0.025	  0.135
 32.523	  0.025	  0.145
 32.531	  0.025	  0.145
 32.539	  0.045	  0.155
 32.547	  0.045	  0.145
 32.555	  0.055	  0.155
 32.562	  0.075	  0.145
 32.570	  0.075	  0.155
 32.578	  0.105	  0.145
 32.586	  0.115	  0.155
 32.594	  0.135	  0.155
 32.602	  0.165	  0.155
 32.609	  0.185	  0.155
 32.617	  0.215	  0.145
 32.625	  0.265	  0.135
 32.633	  0.285	  0.125
 32.641	  0.355	  0.105
 32.648	  0.385	  0.095
 32.656	  0.425	  0.085
 32.664	  0.455	  0.085
 32.672	  0.455	  0.065
 32.680	  0.455	  0.075
 32.688	  0.415	  0.085
 32.695	  0.345	  0.105
 32.703	  0.255	  0.105
 32.711	  0.175	  0.135
 32.719	  0.105	  0.155
 32.727	  0.055	  0.165
 32.734	  0.015	  0.165
 32.742	 -0.025	  0.175
 32.750	 -0.035	  0.165
 32.758	 -0.045	  0.165
 32.766	 -0.025	  0.165
 32.773	 -0.035	  0.155
 32.781	 -0.025	  0.175
 32.789	 -0.025	  0.165
 32.797	 -0.035	  0.165
 32.805	 -0.025	  0.165
 32.812	 -0.035	  0.165
 32.820	 -0.035	  0.175
 32.828	 -0.025	  0.165
 32.836	 -0.025	  0.175
 32.844	  0.005	  0.175
 32.852	 -0.005	  0.175
 32.859	 -0.015	  0.165
 32.867	 -0.015	  0.165
 32.875	 -0.035	  0.165
 32.883	 -0.035	  0.165
 32.891	 -0.015	  0.155
 32.898	 -0.025	  0.155
 32.906	 -0.015	  0.165
 32.914	 -0.035	  0.155
 32.922	 -0.025	  0.155
 32.930	 -0.025	  0.155
 32.938	 -0.035	  0.155
 32.945	 -0.025	  0.155
 32.953	 -0.035	  0.145
 32.961	 -0.015	  0.155
 32.969	 -0.015	  0.155
 32.977	  0.025	  0.185
 32.984	  0.035	  0.205
 32.992	  0.055	  0.205
 33.000	  0.095	  0.195
 33.008	  0.115	  0.185
 33.016	  0.095	  0.165
 33.023	  0.055	  0.155
 33.031	  0.055	  0.145
 33.039	  0.035	  0.165
 33.047	  0.015	  0.145
 33.055	 -0.025	  0.145
 33.062	 -0.045	  0.145
 33.070	 -0.055	  0.145
 33.078	 -0.045	  0.135
 33.086	 -0.045	  0.135
 33.094	 -0.035	  0.155
 33.102	 -0.025	  0.145
 33.109	 -0.025	  0.145
 33.117	 -0.025	  0.155
 33.125	 -0.015	  0.145
 33.133	 -0.025	  0.155
 33.141	 -0.005	  0.315
 33.148	  0.185	  0.405
 33.156	  0.555	  0.065
 33.164	  1.235	 -0.665
 33.172	  1.365	 -0.805
 33.180	  0.435	 -0.455
 33.188	 -0.055	 -0.065
 33.195	 -0.015	  0.105
 33.203	  0.015	  0.155
 33.211	  0.005	  0.195
 33.219	 -0.025	  0.215
 33.227	 -0.005	  0.225
 33.234	 -0.015	  0.225
 33.242	 -0.005	  0.225
 33.250	 -0.005	  0.225
 33.258	 -0.005	  0.225
 33.266	  0.005	  0.225
 33.273	  0.015	  0.225
 33.281	  0.025	  0.225
 33.289	  0.055	  0.225
 33.297	  0.045	  0.215
 33.305	  0.065	  0.225
 33.312	  0.085	  0.215
 33.320	  0.095	  0.205
 33.328	  0.125	  0.215
 33.336	  0.155	  0.205
 33.344	  0.175	  0.205
 33.352	  0.235	  0.195
 33.359	  0.255	  0.185
 33.367	  0.305	  0.175
 33.375	  0.345	  0.165
 33.383	  0.365	  0.155
 33.391	  0.415	  0.135
 33.398	  0.435	  0.125
 33.406	  0.415	  0.145
 33.414	  0.395	  0.155
 33.422	  0.325	  0.165
 33.430	  0.255	  0.185
 33.438	  0.165	  0.205
 33.445	  0.095	  0.205
 33.453	  0.035	  0.215
 33.461	 -0.005	  0.215
 33.469	 -0.035	  0.225
 33.477	 -0.045	  0.225
 33.484	 -0.065	  0.215
 33.492	 -0.065	  0.215
 33.500	 -0.075	  0.215
 33.508	 -0.055	  0.215
 33.516	 -0.075	  0.215
 33.523	 -0.055	  0.215
 33.531	 -0.045	  0.215
 33.539	 -0.045	  0.225
 33.547	 -0.045	  0.225
 33.555	 -0.035	  0.225
 33.562	 -0.055	  0.225
 33.570	 -0.035	  0.225
 33.578	 -0.045	  0.215
 33.586	 -0.035	  0.225
 33.594	 -0.025	  0.225
 33.602	 -0.025	  0.225
 33.609	 -0.035	  0.225
 33.617	 -0.045	  0.215
 33.625	 -0.055	  0.215
 33.633	 -0.055	  0.225
 33.641	 -0.045	  0.215
 33.648	 -0.035	  0.215
 33.656	 -0.035	  0.215
 33.664	 -0.035	  0.225
 33.672	 -0.035	  0.215
 33.680	 -0.035	  0.225
 33.688	 -0.025	  0.205
 33.695	 -0.035	  0.215
 33.703	 -0.035	  0.205
 33.711	 -0.015	  0.215
 33.719	 -0.015	  0.215
 33.727	 -0.015	  0.225
 33.734	 -0.015	  0.225
 33.742	  0.025	  0.255
 33.750	  0.035	  0.265
 33.758	  0.065	  0.265
 33.766	  0.105	  0.255
 33.773	  0.125	  0.245
 33.781	  0.075	  0.235
 33.789	  0.075	  0.215
 33.797	  0.045	  0.205
 33.805	  0.015	  0.215
 33.812	 -0.005	  0.185
 33.820	 -0.045	  0.195
 33.828	 -0.045	  0.195
 33.836	 -0.045	  0.195
 33.844	 -0.035	  0.195
 33.852	 -0.035	  0.205
 33.859	 -0.035	  0.205
 33.867	 -0.035	  0.195
 33.875	 -0.035	  0.205
 33.883	 -0.045	  0.205
 33.891	 -0.015	  0.205
 33.898	 -0.005	  0.215
 33.906	 -0.005	  0.425
 33.914	  0.295	  0.465
 33.922	  0.715	 -0.185
 33.930	  1.395	 -0.725
 33.938	  1.205	 -0.715
 33.945	  0.185	 -0.255
 33.953	 -0.035	  0.055
 33.961	 -0.005	  0.175
 33.969	 -0.005	  0.225
 33.977	  0.005	  0.265
 33.984	 -0.025	  0.275
 33.992	 -0.035	  0.275
 34.000	 -0.025	  0.285
 34.008	 -0.035	  0.285
 34.016	 -0.025	  0.285
 34.023	 -0.005	  0.285
 34.031	 -0.005	  0.285
 34.039	  0.015	  0.285
 34.047	  0.015	  0.285
 34.055	  0.035	  0.285
 34.062	  0.055	  0.275
 34.070	  0.045	  0.275
 34.078	  0.065	  0.275
 34.086	  0.095	  0.275
 34.094	  0.115	  0.275
 34.102	  0.155	  0.275
 34.109	  0.175	  0.265
 34.117	  0.215	  0.255
 34.125	  0.325	  0.245
 34.133	  0.275	  0.235
 34.141	  0.345	  0.215
 34.148	  0.375	  0.205
 34.156	  0.375	  0.185
 34.164	  0.415	  0.195
 34.172	  0.385	  0.195
 34.180	  0.345	  0.205
 34.188	  0.275	  0.225
 34.195	  0.175	  0.245
 34.203	  0.105	  0.255
 34.211	  0.045	  0.265
 34.219	 -0.005	  0.275
 34.227	 -0.035	  0.265
 34.234	 -0.065	  0.265
 34.242	 -0.075	  0.265
 34.250	 -0.095	  0.265
 34.258	 -0.085	  0.265
 34.266	 -0.075	  0.265
 34.273	 -0.075	  0.255
 34.281	 -0.075	  0.265
 34.289	 -0.065	  0.265
 34.297	 -0.055	  0.265
 34.305	 -0.065	  0.265
 34.312	 -0.075	  0.265
 34.320	 -0.055	  0.265
 34.328	 -0.045	  0.265
 34.336	 -0.055	  0.265
 34.344	 -0.045	  0.265
 34.352	 -0.055	  0.265
 34.359	 -0.055	  0.265
 34.367	 -0.055	  0.255
 34.375	 -0.045	  0.255
 34.383	 -0.085	  0.305
 34.391	 -0.065	  0.265
 34.398	 -0.065	  0.255
 34.406	 -0.065	  0.245
 34.414	 -0.055	  0.245
 34.422	 -0.065	  0.245
 34.430	 -0.065	  0.245
 34.438	 -0.075	  0.245
 34.445	 -0.065	  0.235
 34.453	 -0.055	  0.235
 34.461	 -0.045	  0.235
 34.469	 -0.035	  0.235
 34.477	 -0.035	  0.245
 34.484	 -0.055	  0.245
 34.492	 -0.015	  0.265
 34.500	 -0.005	  0.285
 34.508	  0.025	  0.285
 34.516	  0.055	  0.275
 34.523	  0.075	  0.275
 34.531	  0.065	  0.245
 34.539	  0.045	  0.235
 34.547	  0.035	  0.225
 34.555	 -0.005	  0.225
 34.562	 -0.035	  0.205
 34.570	 -0.075	  0.205
 34.578	 -0.065	  0.205
 34.586	 -0.065	  0.205
 34.594	 -0.065	  0.205
 34.602	 -0.075	  0.215
 34.609	 -0.065	  0.205
 34.617	 -0.055	  0.205
 34.625	 -0.065	  0.205
 34.633	 -0.055	  0.205
 34.641	 -0.045	  0.205
 34.648	 -0.035	  0.215
 34.656	 -0.065	  0.345
 34.664	  0.135	  0.455
 34.672	  0.545	  0.305
 34.680	  1.045	 -0.405
 34.688	  1.445	 -0.535
 34.695	  0.485	 -0.425
 34.703	 -0.105	 -0.055
 34.711	 -0.045	  0.125
 34.719	 -0.025	  0.185
 34.727	 -0.015	  0.245
 34.734	 -0.045	  0.255
 34.742	 -0.045	  0.265
 34.750	 -0.045	  0.275
 34.758	 -0.045	  0.275
 34.766	 -0.035	  0.265
 34.773	 -0.035	  0.275
 34.781	 -0.015	  0.275
 34.789	  0.005	  0.285
 34.797	  0.005	  0.265
 34.805	  0.015	  0.255
 34.812	 -0.005	  0.245
 34.820	  0.035	  0.245
 34.828	  0.045	  0.235
 34.836	  0.075	  0.225
 34.844	  0.105	  0.225
 34.852	  0.135	  0.225
 34.859	  0.145	  0.205
 34.867	  0.185	  0.185
 34.875	  0.245	  0.195
 34.883	  0.235	  0.245
 34.891	  0.285	  0.175
 34.898	  0.355	  0.135
 34.906	  0.375	  0.135
 34.914	  0.395	  0.135
 34.922	  0.385	  0.145
 34.930	  0.335	  0.145
 34.938	  0.245	  0.165
 34.945	  0.185	  0.185
 34.953	  0.105	  0.195
 34.961	  0.035	  0.205
 34.969	 -0.005	  0.215
 34.977	 -0.045	  0.245
 34.984	 -0.095	  0.215
 34.992	 -0.085	  0.205
 35.000	 -0.115	  0.195
 35.008	 -0.115	  0.215
 35.016	 -0.215	  0.165
 35.023	 -0.105	  0.205
 35.031	 -0.085	  0.195
 35.039	 -0.095	  0.205
 35.047	 -0.095	  0.195
 35.055	 -0.075	  0.195
 35.062	 -0.085	  0.195
 35.070	 -0.105	  0.195
 35.078	 -0.085	  0.185
 35.086	 -0.075	  0.185
 35.094	 -0.065	  0.195
 35.102	 -0.085	  0.185
 35.109	 -0.095	  0.175
 35.117	 -0.085	  0.175
 35.125	 -0.105	  0.175
 35.133	 -0.095	  0.175
 35.141	 -0.085	  0.165
 35.148	 -0.085	  0.165
 35.156	 -0.075	  0.165
 35.164	 -0.095	  0.165
 35.172	 -0.085	  0.165
 35.180	 -0.085	  0.165
 35.188	 -0.075	  0.175
 35.195	 -0.055	  0.195
 35.203	 -0.025	  0.195
 35.211	  0.015	  0.195
 35.219	  0.045	  0.185
 35.227	  0.065	  0.175
 35.234	  0.015	  0.155
 35.242	 -0.005	  0.125
 35.250	 -0.005	  0.125
 35.258	 -0.155	  0.065
 35.266	 -0.005	  0.125
 35.273	  0.285	  0.205
 35.281	 -0.115	  0.085
 35.289	 -0.105	  0.095
 35.297	 -0.125	  0.095
 35.305	 -0.125	  0.095
 35.312	 -0.115	  0.095
 35.320	 -0.145	  0.095
 35.328	 -0.135	  0.095
 35.336	 -0.115	  0.105
 35.344	 -0.115	  0.105
 35.352	 -0.095	  0.105
 35.359	 -0.105	  0.215
 35.367	  0.015	  0.335
 35.375	  0.375	  0.235
 35.383	  0.995	 -0.445
 35.391	  1.435	 -0.675
 35.398	  0.775	 -0.655
 35.406	 -0.235	 -0.255
 35.414	 -0.115	 -0.025
 35.422	 -0.105	  0.065
 35.430	 -0.085	  0.105
 35.438	 -0.095	  0.125
 35.445	 -0.115	  0.145
 35.453	 -0.105	  0.145
 35.461	 -0.095	  0.155
 35.469	 -0.095	  0.165
 35.477	 -0.065	  0.155
 35.484	 -0.065	  0.165
 35.492	 -0.075	  0.165
 35.500	 -0.065	  0.155
 35.508	 -0.075	  0.165
 35.516	 -0.045	  0.155
 35.523	 -0.025	  0.165
 35.531	  0.005	  0.155
 35.539	  0.035	  0.155
 35.547	  0.035	  0.145
 35.555	  0.055	  0.145
 35.562	  0.095	  0.125
 35.570	  0.105	  0.115
 35.578	  0.175	  0.105
 35.586	  0.225	  0.085
 35.594	  0.275	  0.065
 35.602	  0.315	  0.065
 35.609	  0.335	  0.045
 35.617	  0.365	  0.035
 35.625	  0.355	  0.035
 35.633	  0.315	  0.035
 35.641	  0.265	  0.055
 35.648	  0.195	  0.075
 35.656	  0.095	  0.095
 35.664	  0.055	  0.115
 35.672	 -0.035	  0.125
 35.680	 -0.085	  0.125
 35.688	 -0.095	  0.125
 35.695	 -0.135	  0.125
 35.703	 -0.145	  0.125
 35.711	 -0.145	  0.115
 35.719	 -0.155	  0.125
 35.727	 -0.135	  0.125
 35.734	 -0.145	  0.125
 35.742	 -0.145	  0.115
 35.750	 -0.135	  0.115
 35.758	 -0.135	  0.115
 35.766	 -0.135	  0.105
 35.773	 -0.125	  0.105
 35.781	 -0.115	  0.105
 35.789	 -0.115	  0.105
 35.797	 -0.115	  0.095
 35.805	 -0.115	  0.095
 35.812	 -0.115	  0.085
 35.820	 -0.125	  0.085
 35.828	 -0.115	  0.075
 35.836	 -0.135	  0.075
 35.844	 -0.125	  0.065
 35.852	 -0.125	  0.065
 35.859	 -0.135	  0.065
 35.867	 -0.125	  0.065
 35.875	 -0.145	  0.055
 35.883	 -0.115	  0.085
 35.891	 -0.085	  0.095
 35.898	 -0.065	  0.105
 35.906	 -0.015	  0.115
 35.914	  0.005	  0.105
 35.922	 -0.005	  0.075
 35.930	 -0.045	  0.065
 35.938	 -0.075	  0.045
 35.945	 -0.085	  0.045
 35.953	 -0.095	  0.025
 35.961	 -0.145	  0.025
 35.969	 -0.155	  0.025
 35.977	 -0.165	  0.015
 35.984	 -0.165	  0.005
 35.992	 -0.165	  0.005
 36.000	 -0.175	  0.015
 36.008	 -0.165	  0.015
 36.016	 -0.155	  0.005
 36.023	 -0.145	  0.005
 36.031	 -0.115	  0.015
 36.039	 -0.125	  0.015
 36.047	 -0.115	  0.105
 36.055	 -0.045	  0.285
 36.062	  0.285	  0.185
 36.070	  0.905	 -0.635
 36.078	  1.425	 -0.935
 36.086	  0.815	 -0.805
 36.094	 -0.095	 -0.325
 36.102	 -0.105	 -0.075
 36.109	 -0.105	  0.005
 36.117	 -0.095	  0.045
 36.125	 -0.125	  0.065
 36.133	 -0.145	  0.075
 36.141	 -0.135	  0.075
 36.148	 -0.125	  0.075
 36.156	 -0.115	  0.085
 36.164	 -0.125	  0.075
 36.172	 -0.105	  0.075
 36.180	 -0.105	  0.075
 36.188	 -0.095	  0.075
 36.195	 -0.095	  0.075
 36.203	 -0.075	  0.065
 36.211	 -0.045	  0.055
 36.219	 -0.035	  0.065
 36.227	 -0.015	  0.065
 36.234	  0.005	  0.055
 36.242	  0.035	  0.045
 36.250	  0.055	  0.045
 36.258	  0.085	  0.035
 36.266	  0.135	  0.015
 36.273	  0.185	  0.005
 36.281	  0.225	 -0.005
 36.289	  0.265	 -0.015
 36.297	  0.295	 -0.035
 36.305	  0.305	 -0.035
 36.312	  0.325	 -0.045
 36.320	  0.305	 -0.045
 36.328	  0.255	 -0.025
 36.336	  0.175	 -0.005
 36.344	  0.105	  0.005
 36.352	  0.035	  0.015
 36.359	 -0.035	  0.015
 36.367	 -0.085	  0.025
 36.375	 -0.115	  0.025
 36.383	 -0.145	  0.035
 36.391	 -0.145	  0.015
 36.398	 -0.155	  0.015
 36.406	 -0.145	  0.015
 36.414	 -0.145	  0.025
 36.422	 -0.165	  0.015
 36.430	 -0.145	  0.015
 36.438	 -0.145	  0.015
 36.445	 -0.145	  0.005
 36.453	 -0.135	  0.015
 36.461	 -0.135	  0.015
 36.469	 -0.135	  0.015
 36.477	 -0.115	  0.015
 36.484	 -0.125	  0.015
 36.492	 -0.125	  0.015
 36.500	 -0.125	  0.015
 36.508	 -0.145	  0.005
 36.516	 -0.125	 -0.005
 36.523	 -0.135	 -0.005
 36.531	 -0.145	 -0.005
 36.539	 -0.125	 -0.005
 36.547	 -0.145	 -0.005
 36.555	 -0.135	 -0.015
 36.562	 -0.135	 -0.015
 36.570	 -0.155	 -0.015
 36.578	 -0.135	 -0.025
 36.586	 -0.155	 -0.025
 36.594	 -0.125	 -0.025
 36.602	 -0.135	 -0.015
 36.609	 -0.125	 -0.025
 36.617	 -0.125	 -0.015
 36.625	 -0.095	  0.015
 36.633	 -0.085	  0.025
 36.641	 -0.055	  0.005
 36.648	 -0.005	  0.005
 36.656	  0.015	 -0.005
 36.664	 -0.015	 -0.015
 36.672	 -0.045	 -0.045
 36.680	 -0.055	 -0.045
 36.688	 -0.085	 -0.055
 36.695	 -0.125	 -0.055
 36.703	 -0.145	 -0.065
 36.711	 -0.145	 -0.065
 36.719	 -0.145	 -0.065
 36.727	 -0.145	 -0.065
 36.734	 -0.145	 -0.065
 36.742	 -0.145	 -0.065
 36.750	 -0.155	 -0.065
 36.758	 -0.145	 -0.065
 36.766	 -0.125	 -0.065
 36.773	 -0.105	 -0.055
 36.781	 -0.085	  0.005
 36.789	 -0.055	  0.205
 36.797	  0.285	  0.125
 36.805	  0.765	 -0.565
 36.812	  1.345	 -0.985
 36.820	  0.925	 -0.895
 36.828	 -0.025	 -0.415
 36.836	 -0.115	 -0.145
 36.844	 -0.105	 -0.055
 36.852	 -0.085	 -0.015
 36.859	 -0.115	  0.005
 36.867	 -0.135	  0.015
 36.875	 -0.135	  0.015
 36.883	 -0.145	  0.015
 36.891	 -0.125	  0.005
 36.898	 -0.125	  0.005
 36.906	 -0.115	  0.015
 36.914	 -0.095	  0.005
 36.922	 -0.095	  0.005
 36.930	 -0.085	  0.005
 36.938	 -0.085	 -0.005
 36.945	 -0.065	 -0.005
 36.953	 -0.055	 -0.015
 36.961	 -0.015	 -0.015
 36.969	 -0.005	 -0.015
 36.977	  0.025	 -0.015
 36.984	  0.045	 -0.025
 36.992	  0.075	 -0.035
 37.000	  0.105	 -0.035
 37.008	  0.155	 -0.055
 37.016	  0.195	 -0.065
 37.023	  0.235	 -0.075
 37.031	  0.265	 -0.085
 37.039	  0.305	 -0.085
 37.047	  0.305	 -0.085
 37.055	  0.285	 -0.085
 37.062	  0.255	 -0.075
 37.070	  0.185	 -0.055
 37.078	  0.115	 -0.045
 37.086	  0.035	 -0.025
 37.094	 -0.035	 -0.025
 37.102	 -0.095	 -0.015
 37.109	 -0.125	 -0.025
 37.117	 -0.145	 -0.025
 37.125	 -0.175	 -0.025
 37.133	 -0.175	 -0.025
 37.141	 -0.175	 -0.035
 37.148	 -0.165	 -0.025
 37.156	 -0.165	 -0.025
 37.164	 -0.155	 -0.025
 37.172	 -0.165	 -0.035
 37.180	 -0.155	 -0.025
 37.188	 -0.155	 -0.025
 37.195	 -0.155	 -0.025
 37.203	 -0.155	 -0.025
 37.211	 -0.145	 -0.025
 37.219	 -0.145	 -0.025
 37.227	 -0.145	 -0.025
 37.234	 -0.155	 -0.035
 37.242	 -0.155	 -0.035
 37.250	 -0.165	 -0.035
 37.258	 -0.165	 -0.035
 37.266	 -0.165	 -0.045
 37.273	 -0.155	 -0.045
 37.281	 -0.155	 -0.045
 37.289	 -0.155	 -0.055
 37.297	 -0.165	 -0.055
 37.305	 -0.165	 -0.055
 37.312	 -0.175	 -0.055
 37.320	 -0.185	 -0.055
 37.328	 -0.175	 -0.065
 37.336	 -0.165	 -0.055
 37.344	 -0.155	 -0.055
 37.352	 -0.165	 -0.055
 37.359	 -0.135	 -0.035
 37.367	 -0.105	 -0.005
 37.375	 -0.085	 -0.015
 37.383	 -0.045	 -0.025
 37.391	 -0.005	 -0.035
 37.398	 -0.055	 -0.055
 37.406	 -0.075	 -0.065
 37.414	 -0.075	 -0.075
 37.422	 -0.115	 -0.075
 37.430	 -0.145	 -0.085
 37.438	 -0.185	 -0.085
 37.445	 -0.185	 -0.085
 37.453	 -0.185	 -0.085
 37.461	 -0.175	 -0.085
 37.469	 -0.165	 -0.075
 37.477	 -0.165	 -0.075
 37.484	 -0.165	 -0.075
 37.492	 -0.165	 -0.075
 37.500	 -0.165	 -0.075
 37.508	 -0.145	 -0.065
 37.516	 -0.135	 -0.065
 37.523	 -0.125	  0.125
 37.531	  0.145	  0.165
 37.539	  0.495	 -0.215
 37.547	  1.115	 -0.845
 37.555	  1.175	 -0.935
 37.562	  0.195	 -0.585
 37.570	 -0.205	 -0.265
 37.578	 -0.135	 -0.115
 37.586	 -0.115	 -0.065
 37.594	 -0.135	 -0.025
 37.602	 -0.135	 -0.015
 37.609	 -0.145	 -0.005
 37.617	 -0.145	 -0.005
 37.625	 -0.145	 -0.015
 37.633	 -0.135	 -0.015
 37.641	 -0.135	 -0.015
 37.648	 -0.135	 -0.025
 37.656	 -0.125	 -0.015
 37.664	 -0.095	 -0.005
 37.672	 -0.105	 -0.015
 37.680	 -0.085	 -0.025
 37.688	 -0.075	 -0.025
 37.695	 -0.085	 -0.025
 37.703	 -0.045	 -0.035
 37.711	 -0.025	 -0.045
 37.719	  0.005	 -0.045
 37.727	  0.045	 -0.045
 37.734	  0.065	 -0.055
 37.742	  0.105	 -0.055
 37.750	  0.155	 -0.075
 37.758	  0.185	 -0.095
 37.766	  0.225	 -0.105
 37.773	  0.265	 -0.115
 37.781	  0.295	 -0.115
 37.789	  0.285	 -0.105
 37.797	  0.255	 -0.105
 37.805	  0.205	 -0.085
 37.812	  0.125	 -0.065
 37.820	  0.025	 -0.055
 37.828	 -0.045	 -0.045
 37.836	 -0.095	 -0.035
 37.844	 -0.125	 -0.025
 37.852	 -0.155	 -0.025
 37.859	 -0.175	 -0.035
 37.867	 -0.185	 -0.035
 37.875	 -0.185	 -0.035
 37.883	 -0.215	 -0.035
 37.891	 -0.195	 -0.045
 37.898	 -0.185	 -0.045
 37.906	 -0.195	 -0.045
 37.914	 -0.175	 -0.045
 37.922	 -0.185	 -0.035
 37.930	 -0.165	 -0.035
 37.938	 -0.185	 -0.035
 37.945	 -0.185	 -0.035
 37.953	 -0.165	 -0.045
 37.961	 -0.155	 -0.045
 37.969	 -0.175	 -0.045
 37.977	 -0.165	 -0.045
 37.984	 -0.165	 -0.055
 37.992	 -0.165	 -0.055
 38.000	 -0.175	 -0.055
 38.008	 -0.175	 -0.055
 38.016	 -0.175	 -0.065
 38.023	 -0.165	 -0.065
 38.031	 -0.175	 -0.065
 38.039	 -0.165	 -0.055
 38.047	 -0.165	 -0.045
 38.055	 -0.135	 -0.025
 38.062	 -0.125	 -0.005
 38.070	 -0.075	 -0.015
 38.078	 -0.045	 -0.035
 38.086	 -0.045	 -0.045
 38.094	 -0.065	 -0.055
 38.102	 -0.095	 -0.075
 38.109	 -0.115	 -0.075
 38.117	 -0.135	 -0.085
 38.125	 -0.185	 -0.095
 38.133	 -0.205	 -0.095
 38.141	 -0.195	 -0.105
 38.148	 -0.195	 -0.105
 38.156	 -0.195	 -0.095
 38.164	 -0.205	 -0.095
 38.172	 -0.195	 -0.095
 38.180	 -0.195	 -0.095
 38.188	 -0.205	 -0.095
 38.195	 -0.185	 -0.095
 38.203	 -0.175	 -0.095
 38.211	 -0.165	 -0.015
 38.219	 -0.085	  0.145
 38.227	  0.265	  0.125
 38.234	  0.915	 -0.565
 38.242	  1.355	 -0.825
 38.250	  0.605	 -0.805
 38.258	 -0.315	 -0.425
 38.266	 -0.185	 -0.205
 38.273	 -0.145	 -0.115
 38.281	 -0.135	 -0.065
 38.289	 -0.145	 -0.035
 38.297	 -0.165	 -0.035
 38.305	 -0.145	 -0.025
 38.312	 -0.165	 -0.025
 38.320	 -0.155	 -0.025
 38.328	 -0.145	 -0.025
 38.336	 -0.125	 -0.025
 38.344	 -0.095	 -0.025
 38.352	 -0.105	 -0.025
 38.359	 -0.095	 -0.035
 38.367	 -0.075	 -0.025
 38.375	 -0.075	 -0.035
 38.383	 -0.045	 -0.035
 38.391	 -0.035	 -0.045
 38.398	 -0.015	 -0.035
 38.406	  0.045	 -0.045
 38.414	  0.055	 -0.045
 38.422	  0.095	 -0.055
 38.430	  0.125	 -0.065
 38.438	  0.145	 -0.075
 38.445	  0.205	 -0.095
 38.453	  0.255	 -0.105
 38.461	  0.285	 -0.115
 38.469	  0.305	 -0.125
 38.477	  0.305	 -0.115
 38.484	  0.275	 -0.115
 38.492	  0.225	 -0.105
 38.500	  0.135	 -0.085
 38.508	  0.055	 -0.055
 38.516	 -0.015	 -0.055
 38.523	 -0.075	 -0.035
 38.531	 -0.125	 -0.025
 38.539	 -0.145	 -0.025
 38.547	 -0.175	 -0.025
 38.555	 -0.185	 -0.015
 38.562	 -0.185	 -0.025
 38.570	 -0.215	 -0.025
 38.578	 -0.205	 -0.025
 38.586	 -0.185	 -0.015
 38.594	 -0.185	 -0.015
 38.602	 -0.175	 -0.015
 38.609	 -0.175	 -0.015
 38.617	 -0.165	 -0.015
 38.625	 -0.165	 -0.015
 38.633	 -0.175	 -0.015
 38.641	 -0.155	 -0.015
 38.648	 -0.145	 -0.025
 38.656	 -0.145	 -0.025
 38.664	 -0.135	 -0.015
 38.672	 -0.135	 -0.015
 38.680	 -0.135	 -0.025
 38.688	 -0.135	 -0.035
 38.695	 -0.165	 -0.035
 38.703	 -0.155	 -0.035
 38.711	 -0.135	 -0.035
 38.719	 -0.145	 -0.035
 38.727	 -0.095	 -0.005
 38.734	 -0.105	  0.005
 38.742	 -0.075	  0.015
 38.750	 -0.015	  0.005
 38.758	 -0.025	 -0.015
 38.766	 -0.035	 -0.035
 38.773	 -0.065	 -0.045
 38.781	 -0.075	 -0.055
 38.789	 -0.105	 -0.055
 38.797	 -0.125	 -0.075
 38.805	 -0.175	 -0.075
 38.812	 -0.185	 -0.065
 38.820	 -0.185	 -0.075
 38.828	 -0.185	 -0.085
 38.836	 -0.185	 -0.075
 38.844	 -0.165	 -0.075
 38.852	 -0.185	 -0.065
 38.859	 -0.175	 -0.065
 38.867	 -0.155	 -0.075
 38.875	 -0.165	 -0.065
 38.883	 -0.145	 -0.045
 38.891	 -0.145	  0.175
 38.898	  0.215	  0.165
 38.906	  0.705	 -0.485
 38.914	  1.365	 -0.945
 38.922	  0.825	 -0.855
 38.930	 -0.155	 -0.365
 38.938	 -0.165	 -0.145
 38.945	 -0.125	 -0.065
 38.953	 -0.125	 -0.025
 38.961	 -0.145	 -0.005
 38.969	 -0.125	  0.005
 38.977	 -0.145	  0.005
 38.984	 -0.145	  0.005
 38.992	 -0.135	  0.015
 39.000	 -0.145	  0.005
 39.008	 -0.125	  0.005
 39.016	 -0.115	  0.005
 39.023	 -0.105	  0.015
 39.031	 -0.085	  0.005
 39.039	 -0.075	  0.005
 39.047	 -0.075	  0.005
 39.055	 -0.035	  0.005
 39.062	 -0.055	  0.015
 39.070	 -0.015	  0.005
 39.078	  0.015	  0.005
 39.086	  0.045	 -0.005
 39.094	  0.075	 -0.005
 39.102	  0.125	 -0.005
 39.109	  0.155	 -0.025
 39.117	  0.205	 -0.035
 39.125	  0.235	 -0.055
 39.133	  0.275	 -0.065
 39.141	  0.305	 -0.075
 39.148	  0.325	 -0.075
 39.156	  0.315	 -0.075
 39.164	  0.265	 -0.055
 39.172	  0.205	 -0.045
 39.180	  0.135	 -0.025
 39.188	  0.045	 -0.015
 39.195	 -0.045	 -0.005
 39.203	 -0.085	 -0.005
 39.211	 -0.135	 -0.005
 39.219	 -0.145	  0.005
 39.227	 -0.145	  0.005
 39.234	 -0.175	 -0.005
 39.242	 -0.185	 -0.005
 39.250	 -0.175	 -0.015
 39.258	 -0.195	 -0.015
 39.266	 -0.165	 -0.025
 39.273	 -0.165	 -0.025
 39.281	 -0.155	 -0.025
 39.289	 -0.155	 -0.025
 39.297	 -0.155	 -0.025
 39.305	 -0.155	 -0.025
 39.312	 -0.155	 -0.035
 39.320	 -0.175	 -0.025
 39.328	 -0.155	 -0.035
 39.336	 -0.145	 -0.035
 39.344	 -0.155	 -0.045
 39.352	 -0.155	 -0.045
 39.359	 -0.145	 -0.045
 39.367	 -0.145	 -0.045
 39.375	 -0.155	 -0.055
 39.383	 -0.185	 -0.065
 39.391	 -0.165	 -0.065
 39.398	 -0.155	 -0.065
 39.406	 -0.155	 -0.075
 39.414	 -0.145	 -0.075
 39.422	 -0.155	 -0.075
 39.430	 -0.155	 -0.085
 39.438	 -0.125	 -0.065
 39.445	 -0.125	 -0.045
 39.453	 -0.085	 -0.045
 39.461	 -0.045	 -0.055
 39.469	 -0.015	 -0.065
 39.477	 -0.005	 -0.075
 39.484	 -0.065	 -0.085
 39.492	 -0.055	 -0.105
 39.500	 -0.095	 -0.095
 39.508	 -0.125	 -0.105
 39.516	 -0.145	 -0.105
 39.523	 -0.165	 -0.105
 39.531	 -0.165	 -0.115
 39.539	 -0.145	 -0.095
 39.547	 -0.155	 -0.105
 39.555	 -0.155	 -0.105
 39.562	 -0.165	 -0.095
 39.570	 -0.155	 -0.095
 39.578	 -0.135	 -0.095
 39.586	 -0.115	 -0.085
 39.594	 -0.115	 -0.085
 39.602	 -0.115	  0.095
 39.609	  0.135	  0.165
 39.617	  0.585	 -0.385
 39.625	  1.255	 -0.975
 39.633	  1.085	 -0.975
 39.641	  0.015	 -0.545
 39.648	 -0.125	 -0.225
 39.656	 -0.105	 -0.105
 39.664	 -0.105	 -0.055
 39.672	 -0.125	 -0.035
 39.680	 -0.145	 -0.025
 39.688	 -0.145	 -0.015
 39.695	 -0.135	 -0.005
 39.703	 -0.135	 -0.005
 39.711	 -0.135	 -0.005
 39.719	 -0.105	  0.005
 39.727	 -0.105	 -0.005
 39.734	 -0.095	 -0.005
 39.742	 -0.085	  0.005
 39.750	 -0.095	 -0.005
 39.758	 -0.065	 -0.005
 39.766	 -0.045	 -0.005
 39.773	 -0.025	 -0.015
 39.781	  0.015	 -0.015
 39.789	  0.015	 -0.025
 39.797	  0.055	 -0.035
 39.805	  0.075	 -0.045
 39.812	  0.105	 -0.065
 39.820	  0.155	 -0.075
 39.828	  0.205	 -0.095
 39.836	  0.245	 -0.115
 39.844	  0.295	 -0.125
 39.852	  0.305	 -0.135
 39.859	  0.305	 -0.145
 39.867	  0.285	 -0.125
 39.875	  0.245	 -0.115
 39.883	  0.185	 -0.105
 39.891	  0.115	 -0.085
 39.898	  0.035	 -0.065
 39.906	 -0.025	 -0.055
 39.914	 -0.085	 -0.045
 39.922	 -0.125	 -0.045
 39.930	 -0.145	 -0.045
 39.938	 -0.165	 -0.055
 39.945	 -0.165	 -0.055
 39.953	 -0.175	 -0.065
 39.961	 -0.165	 -0.065
 39.969	 -0.155	 -0.055
 39.977	 -0.155	 -0.065
 39.984	 -0.155	 -0.065
 39.992	 -0.155	 -0.065
 40.000	 -0.165	 -0.075
 40.008	 -0.145	 -0.065
 40.016	 -0.135	 -0.065
 40.023	 -0.135	 -0.075
 40.031	 -0.125	 -0.065
 40.039	 -0.135	 -0.065
 40.047	 -0.135	 -0.065
 40.055	 -0.135	 -0.065
 40.062	 -0.155	 -0.065
 40.070	 -0.135	 -0.065
 40.078	 -0.145	 -0.065
 40.086	 -0.145	 -0.065
 40.094	 -0.135	 -0.075
 40.102	 -0.145	 -0.075
 40.109	 -0.145	 -0.085
 40.117	 -0.135	 -0.085
 40.125	 -0.155	 -0.085
 40.133	 -0.135	 -0.095
 40.141	 -0.145	 -0.095
 40.148	 -0.105	 -0.075
 40.156	 -0.085	 -0.055
 40.164	 -0.075	 -0.045
 40.172	 -0.045	 -0.065
 40.180	  0.005	 -0.055
 40.188	  0.005	 -0.085
 40.195	 -0.055	 -0.095
 40.203	 -0.075	 -0.115
 40.211	 -0.085	 -0.115
 40.219	 -0.105	 -0.115
 40.227	 -0.125	 -0.115
 40.234	 -0.165	 -0.115
 40.242	 -0.165	 -0.125
 40.250	 -0.165	 -0.125
 40.258	 -0.165	 -0.125
 40.266	 -0.155	 -0.115
 40.273	 -0.145	 -0.115
 40.281	 -0.145	 -0.115
 40.289	 -0.125	 -0.105
 40.297	 -0.125	 -0.105
 40.305	 -0.115	 -0.095
 40.312	 -0.095	 -0.015
 40.320	 -0.015	  0.165
 40.328	  0.335	  0.065
 40.336	  0.945	 -0.735
 40.344	  1.285	 -1.015
 40.352	  0.315	 -0.665
 40.359	 -0.155	 -0.275
 40.367	 -0.105	 -0.125
 40.375	 -0.115	 -0.075
 40.383	 -0.115	 -0.055
 40.391	 -0.125	 -0.045
 40.398	 -0.125	 -0.035
 40.406	 -0.115	 -0.035
 40.414	 -0.125	 -0.025
 40.422	 -0.105	 -0.045
 40.430	 -0.115	 -0.045
 40.438	 -0.105	 -0.045
 40.445	 -0.105	 -0.045
 40.453	 -0.085	 -0.055
 40.461	 -0.075	 -0.055
 40.469	 -0.045	 -0.055
 40.477	 -0.035	 -0.055
 40.484	 -0.035	 -0.055
 40.492	 -0.005	 -0.055
 40.500	  0.015	 -0.055
 40.508	  0.025	 -0.055
 40.516	  0.055	 -0.065
 40.523	  0.095	 -0.065
 40.531	  0.145	 -0.075
 40.539	  0.205	 -0.085
 40.547	  0.235	 -0.105
 40.555	  0.265	 -0.115
 40.562	  0.285	 -0.125
 40.570	  0.295	 -0.125
 40.578	  0.295	 -0.125
 40.586	  0.275	 -0.105
 40.594	  0.235	 -0.085
 40.602	  0.125	 -0.065
 40.609	  0.055	 -0.055
 40.617	 -0.005	 -0.055
 40.625	 -0.085	 -0.045
 40.633	 -0.105	 -0.045
 40.641	 -0.125	 -0.045
 40.648	 -0.135	 -0.055
 40.656	 -0.135	 -0.045
 40.664	 -0.155	 -0.045
 40.672	 -0.155	 -0.065
 40.680	 -0.155	 -0.065
 40.688	 -0.165	 -0.055
 40.695	 -0.155	 -0.055
 40.703	 -0.155	 -0.045
 40.711	 -0.165	 -0.045
 40.719	 -0.105	 -0.055
 40.727	 -0.125	 -0.055
 40.734	 -0.105	 -0.055
 40.742	 -0.125	 -0.055
 40.750	 -0.135	 -0.055
 40.758	 -0.125	 -0.065
 40.766	 -0.125	 -0.065
 40.773	 -0.135	 -0.065
 40.781	 -0.115	 -0.065
 40.789	 -0.135	 -0.065
 40.797	 -0.135	 -0.085
 40.805	 -0.135	 -0.075
 40.812	 -0.165	 -0.085
 40.820	 -0.145	 -0.085
 40.828	 -0.145	 -0.065
 40.836	 -0.095	 -0.045
 40.844	 -0.075	 -0.035
 40.852	 -0.035	 -0.035
 40.859	 -0.005	 -0.045
 40.867	 -0.005	 -0.065
 40.875	 -0.015	 -0.085
 40.883	 -0.055	 -0.085
 40.891	 -0.075	 -0.105
 40.898	 -0.105	 -0.095
 40.906	 -0.105	 -0.115
 40.914	 -0.145	 -0.125
 40.922	 -0.175	 -0.125
 40.930	 -0.165	 -0.125
 40.938	 -0.185	 -0.125
 40.945	 -0.175	 -0.125
 40.953	 -0.195	 -0.125
 40.961	 -0.175	 -0.105
 40.969	 -0.195	 -0.105
 40.977	 -0.165	 -0.105
 40.984	 -0.175	 -0.115
 40.992	 -0.155	 -0.095
 41.000	 -0.145	 -0.065
 41.008	 -0.165	  0.135
 41.016	  0.305	  0.015
 41.023	  1.225	 -0.735
 41.031	  1.355	 -0.875
 41.039	  0.465	 -0.745
 41.047	 -0.245	 -0.395
 41.055	 -0.165	 -0.175
 41.062	 -0.115	 -0.085
 41.070	 -0.115	 -0.035
 41.078	 -0.125	 -0.015
 41.086	 -0.135	 -0.005
 41.094	 -0.135	 -0.005
 41.102	 -0.105	 -0.005
 41.109	 -0.115	 -0.005
 41.117	 -0.125	 -0.015
 41.125	 -0.125	 -0.025
 41.133	 -0.105	 -0.015
 41.141	 -0.085	 -0.025
 41.148	 -0.065	 -0.015
 41.156	 -0.055	 -0.025
 41.164	 -0.025	 -0.025
 41.172	 -0.015	 -0.015
 41.180	  0.005	 -0.025
 41.188	  0.025	 -0.025
 41.195	  0.055	 -0.035
 41.203	  0.085	 -0.045
 41.211	  0.145	 -0.055
 41.219	  0.195	 -0.065
 41.227	  0.235	 -0.065
 41.234	  0.275	 -0.095
 41.242	  0.335	 -0.105
 41.250	  0.335	 -0.115
 41.258	  0.355	 -0.115
 41.266	  0.345	 -0.125
 41.273	  0.305	 -0.125
 41.281	  0.245	 -0.105
 41.289	  0.165	 -0.095
 41.297	  0.065	 -0.075
 41.305	 -0.015	 -0.065
 41.312	 -0.065	 -0.055
 41.320	 -0.105	 -0.055
 41.328	 -0.145	 -0.055
 41.336	 -0.155	 -0.055
 41.344	 -0.135	 -0.045
 41.352	 -0.145	 -0.045
 41.359	 -0.155	 -0.055
 41.367	 -0.165	 -0.035
 41.375	 -0.155	 -0.045
 41.383	 -0.155	 -0.035
 41.391	 -0.145	 -0.045
 41.398	 -0.135	 -0.035
 41.406	 -0.115	 -0.035
 41.414	 -0.105	 -0.035
 41.422	 -0.115	 -0.035
 41.430	 -0.115	 -0.035
 41.438	 -0.135	 -0.045
 41.445	 -0.125	 -0.035
 41.453	 -0.125	 -0.045
 41.461	 -0.115	 -0.035
 41.469	 -0.105	 -0.035
 41.477	 -0.105	 -0.045
 41.484	 -0.135	 -0.035
 41.492	 -0.115	 -0.035
 41.500	 -0.105	 -0.005
 41.508	 -0.065	 -0.005
 41.516	 -0.055	 -0.005
 41.523	  0.015	 -0.015
 41.531	  0.005	 -0.025
 41.539	 -0.005	 -0.035
 41.547	 -0.035	 -0.055
 41.555	 -0.045	 -0.065
 41.562	 -0.105	 -0.065
 41.570	 -0.105	 -0.085
 41.578	 -0.155	 -0.095
 41.586	 -0.165	 -0.095
 41.594	 -0.155	 -0.095
 41.602	 -0.175	 -0.095
 41.609	 -0.175	 -0.095
 41.617	 -0.175	 -0.095
 41.625	 -0.175	 -0.095
 41.633	 -0.165	 -0.095
 41.641	 -0.155	 -0.095
 41.648	 -0.135	 -0.095
 41.656	 -0.125	 -0.095
 41.664	 -0.125	  0.025
 41.672	 -0.015	  0.185
 41.680	  0.355	  0.045
 41.688	  1.035	 -0.755
 41.695	  1.415	 -1.025
 41.703	  0.715	 -0.875
 41.711	 -0.155	 -0.415
 41.719	 -0.105	 -0.165
 41.727	 -0.095	 -0.075
 41.734	 -0.105	 -0.035
 41.742	 -0.115	 -0.015
 41.750	 -0.125	 -0.005
 41.758	 -0.115	 -0.005
 41.766	 -0.115	 -0.005
 41.773	 -0.095	 -0.015
 41.781	 -0.095	 -0.005
 41.789	 -0.115	 -0.005
 41.797	 -0.105	 -0.005
 41.805	 -0.085	 -0.005
 41.812	 -0.065	 -0.005
 41.820	 -0.065	 -0.005
 41.828	 -0.045	 -0.005
 41.836	 -0.005	 -0.005
 41.844	  0.025	  0.005
 41.852	  0.035	  0.005
 41.859	  0.065	 -0.005
 41.867	  0.075	 -0.005
 41.875	  0.125	 -0.025
 41.883	  0.175	 -0.025
 41.891	  0.225	 -0.045
 41.898	  0.265	 -0.055
 41.906	  0.305	 -0.075
 41.914	  0.345	 -0.085
 41.922	  0.355	 -0.105
 41.930	  0.335	 -0.095
 41.938	  0.285	 -0.095
 41.945	  0.215	 -0.075
 41.953	  0.155	 -0.065
 41.961	  0.065	 -0.045
 41.969	  0.015	 -0.035
 41.977	 -0.055	 -0.025
 41.984	 -0.105	 -0.025
 41.992	 -0.115	 -0.015
 42.000	 -0.155	 -0.015
 42.008	 -0.165	 -0.025
 42.016	 -0.165	 -0.025
 42.023	 -0.155	 -0.015
 42.031	 -0.135	 -0.015
 42.039	 -0.145	 -0.015
 42.047	 -0.155	 -0.015
 42.055	 -0.165	 -0.015
 42.062	 -0.155	 -0.025
 42.070	 -0.145	 -0.015
 42.078	 -0.145	 -0.015
 42.086	 -0.135	 -0.005
 42.094	 -0.125	 -0.015
 42.102	 -0.135	 -0.015
 42.109	 -0.135	 -0.025
 42.117	 -0.155	 -0.025
 42.125	 -0.155	 -0.025
 42.133	 -0.145	 -0.025
 42.141	 -0.145	 -0.035
 42.148	 -0.165	 -0.035
 42.156	 -0.125	 -0.035
 42.164	 -0.145	 -0.035
 42.172	 -0.155	 -0.045
 42.180	 -0.155	 -0.045
 42.188	 -0.135	 -0.025
 42.195	 -0.085	  0.005
 42.203	 -0.085	  0.005
 42.211	 -0.035	 -0.005
 42.219	  0.025	 -0.005
 42.227	 -0.015	 -0.025
 42.234	 -0.055	 -0.035
 42.242	 -0.065	 -0.055
 42.250	 -0.105	 -0.065
 42.258	 -0.115	 -0.085
 42.266	 -0.145	 -0.095
 42.273	 -0.155	 -0.095
 42.281	 -0.155	 -0.095
 42.289	 -0.145	 -0.095
 42.297	 -0.165	 -0.105
 42.305	 -0.145	 -0.105
 42.312	 -0.165	 -0.095
 42.320	 -0.155	 -0.085
 42.328	 -0.135	 -0.105
 42.336	 -0.115	 -0.105
 42.344	 -0.105	 -0.095
 42.352	 -0.095	  0.065
 42.359	  0.095	  0.175
 42.367	  0.495	 -0.145
 42.375	  1.145	 -0.995
 42.383	  1.335	 -1.165
 42.391	  0.505	 -0.845
 42.398	 -0.115	 -0.375
 42.406	 -0.085	 -0.145
 42.414	 -0.095	 -0.075
 42.422	 -0.095	 -0.055
 42.430	 -0.115	 -0.035
 42.438	 -0.145	 -0.025
 42.445	 -0.135	 -0.015
 42.453	 -0.125	 -0.015
 42.461	 -0.115	 -0.015
 42.469	 -0.115	 -0.025
 42.477	 -0.105	  0.025
 42.484	 -0.105	  0.005
 42.492	 -0.085	  0.005
 42.500	 -0.075	  0.005
 42.508	 -0.065	  0.005
 42.516	 -0.055	 -0.005
 42.523	 -0.035	 -0.015
 42.531	  0.015	 -0.015
 42.539	  0.025	 -0.035
 42.547	  0.035	 -0.025
 42.555	  0.065	 -0.025
 42.562	  0.075	 -0.035
 42.570	  0.145	 -0.035
 42.578	  0.185	 -0.045
 42.586	  0.225	 -0.055
 42.594	  0.285	 -0.075
 42.602	  0.295	 -0.085
 42.609	  0.335	 -0.095
 42.617	  0.325	 -0.095
 42.625	  0.255	 -0.095
 42.633	  0.215	 -0.095
 42.641	  0.125	 -0.075
 42.648	  0.055	 -0.065
 42.656	 -0.005	 -0.055
 42.664	 -0.065	 -0.055
 42.672	 -0.105	 -0.055
 42.680	 -0.145	 -0.045
 42.688	 -0.155	 -0.045
 42.695	 -0.165	 -0.055
 42.703	 -0.155	 -0.055
 42.711	 -0.165	 -0.055
 42.719	 -0.155	 -0.055
 42.727	 -0.155	 -0.055
 42.734	 -0.155	 -0.055
 42.742	 -0.155	 -0.055
 42.750	 -0.175	 -0.055
 42.758	 -0.155	 -0.045
 42.766	 -0.165	 -0.075
 42.773	 -0.145	 -0.075
 42.781	 -0.145	 -0.065
 42.789	 -0.145	 -0.065
 42.797	 -0.145	 -0.065
 42.805	 -0.145	 -0.065
 42.812	 -0.175	 -0.075
 42.820	 -0.175	 -0.075
 42.828	 -0.165	 -0.075
 42.836	 -0.155	 -0.075
 42.844	 -0.135	 -0.085
 42.852	 -0.155	 -0.075
 42.859	 -0.155	 -0.085
 42.867	 -0.145	 -0.085
 42.875	 -0.135	 -0.045
 42.883	 -0.115	 -0.045
 42.891	 -0.085	 -0.045
 42.898	 -0.025	 -0.065
 42.906	 -0.005	 -0.065
 42.914	 -0.055	 -0.095
 42.922	 -0.075	 -0.105
 42.930	 -0.085	 -0.125
 42.938	 -0.135	 -0.125
 42.945	 -0.145	 -0.135
 42.953	 -0.185	 -0.145
 42.961	 -0.195	 -0.145
 42.969	 -0.185	 -0.145
 42.977	 -0.215	 -0.135
 42.984	 -0.205	 -0.155
 42.992	 -0.195	 -0.145
 43.000	 -0.215	 -0.145
 43.008	 -0.185	 -0.135
 43.016	 -0.175	 -0.135
 43.023	 -0.175	 -0.145
 43.031	 -0.155	 -0.135
 43.039	 -0.145	  0.105
 43.047	  0.195	  0.135
 43.055	  0.635	 -0.395
 43.062	  1.285	 -1.075
 43.070	  1.185	 -1.135
 43.078	  0.105	 -0.705
 43.086	 -0.185	 -0.325
 43.094	 -0.145	 -0.145
 43.102	 -0.135	 -0.095
 43.109	 -0.135	 -0.075
 43.117	 -0.175	 -0.065
 43.125	 -0.185	 -0.055
 43.133	 -0.165	 -0.045
 43.141	 -0.175	 -0.055
 43.148	 -0.155	 -0.055
 43.156	 -0.155	 -0.055
 43.164	 -0.145	 -0.055
 43.172	 -0.135	 -0.055
 43.180	 -0.125	 -0.055
 43.188	 -0.115	 -0.065
 43.195	 -0.095	 -0.055
 43.203	 -0.085	 -0.065
 43.211	 -0.065	 -0.055
 43.219	 -0.045	 -0.055
 43.227	 -0.005	 -0.055
 43.234	  0.005	 -0.065
 43.242	  0.035	 -0.075
 43.250	  0.075	 -0.085
 43.258	  0.125	 -0.095
 43.266	  0.165	 -0.105
 43.273	  0.205	 -0.125
 43.281	  0.235	 -0.145
 43.289	  0.275	 -0.145
 43.297	  0.285	 -0.145
 43.305	  0.275	 -0.155
 43.312	  0.235	 -0.155
 43.320	  0.175	 -0.135
 43.328	  0.105	 -0.125
 43.336	  0.025	 -0.115
 43.344	 -0.065	 -0.105
 43.352	 -0.105	 -0.095
 43.359	 -0.155	 -0.095
 43.367	 -0.185	 -0.095
 43.375	 -0.205	 -0.095
 43.383	 -0.225	 -0.105
 43.391	 -0.225	 -0.115
 43.398	 -0.215	 -0.115
 43.406	 -0.205	 -0.105
 43.414	 -0.195	 -0.105
 43.422	 -0.205	 -0.105
 43.430	 -0.195	 -0.105
 43.438	 -0.185	 -0.095
 43.445	 -0.205	 -0.105
 43.453	 -0.175	 -0.105
 43.461	 -0.185	 -0.105
 43.469	 -0.165	 -0.105
 43.477	 -0.175	 -0.095
 43.484	 -0.175	 -0.105
 43.492	 -0.185	 -0.105
 43.500	 -0.215	 -0.105
 43.508	 -0.185	 -0.115
 43.516	 -0.175	 -0.115
 43.523	 -0.185	 -0.115
 43.531	 -0.175	 -0.105
 43.539	 -0.175	 -0.105
 43.547	 -0.165	 -0.085
 43.555	 -0.135	 -0.075
 43.562	 -0.105	 -0.065
 43.570	 -0.065	 -0.085
 43.578	 -0.045	 -0.095
 43.586	 -0.085	 -0.115
 43.594	 -0.075	 -0.125
 43.602	 -0.105	 -0.125
 43.609	 -0.135	 -0.135
 43.617	 -0.185	 -0.145
 43.625	 -0.205	 -0.145
 43.633	 -0.215	 -0.145
 43.641	 -0.215	 -0.155
 43.648	 -0.205	 -0.155
 43.656	 -0.205	 -0.145
 43.664	 -0.205	 -0.145
 43.672	 -0.205	 -0.145
 43.680	 -0.205	 -0.135
 43.688	 -0.205	 -0.155
 43.695	 -0.195	 -0.145
 43.703	 -0.175	 -0.135
 43.711	 -0.205	  0.065
 43.719	  0.105	  0.095
 43.727	  0.465	 -0.215
 43.734	  1.215	 -0.855
 43.742	  1.275	 -0.955
 43.750	 -0.115	 -0.675
 43.758	 -0.265	 -0.365
 43.766	 -0.205	 -0.215
 43.773	 -0.165	 -0.145
 43.781	 -0.145	 -0.105
 43.789	 -0.175	 -0.095
 43.797	 -0.175	 -0.075
 43.805	 -0.165	 -0.075
 43.812	 -0.175	 -0.085
 43.820	 -0.155	 -0.075
 43.828	 -0.145	 -0.085
 43.836	 -0.135	 -0.085
 43.844	 -0.115	 -0.085
 43.852	 -0.115	 -0.075
 43.859	 -0.105	 -0.085
 43.867	 -0.105	 -0.085
 43.875	 -0.115	 -0.085
 43.883	 -0.055	 -0.095
 43.891	 -0.035	 -0.095
 43.898	  0.005	 -0.105
 43.906	  0.025	 -0.095
 43.914	  0.065	 -0.115
 43.922	  0.105	 -0.125
 43.930	  0.145	 -0.145
 43.938	  0.175	 -0.155
 43.945	  0.225	 -0.175
 43.953	  0.255	 -0.185
 43.961	  0.275	 -0.195
 43.969	  0.295	 -0.185
 43.977	  0.275	 -0.185
 43.984	  0.225	 -0.185
 43.992	  0.155	 -0.165
 44.000	  0.055	 -0.135
 44.008	 -0.015	 -0.125
 44.016	 -0.085	 -0.115
 44.023	 -0.125	 -0.105
 44.031	 -0.155	 -0.095
 44.039	 -0.195	 -0.095
 44.047	 -0.195	 -0.095
 44.055	 -0.205	 -0.105
 44.062	 -0.235	 -0.095
 44.070	 -0.205	 -0.085
 44.078	 -0.195	 -0.095
 44.086	 -0.185	 -0.095
 44.094	 -0.165	 -0.095
 44.102	 -0.175	 -0.095
 44.109	 -0.175	 -0.095
 44.117	 -0.175	 -0.095
 44.125	 -0.195	 -0.095
 44.133	 -0.175	 -0.095
 44.141	 -0.175	 -0.105
 44.148	 -0.175	 -0.095
 44.156	 -0.165	 -0.095
 44.164	 -0.185	 -0.105
 44.172	 -0.175	 -0.105
 44.180	 -0.175	 -0.105
 44.188	 -0.185	 -0.115
 44.195	 -0.165	 -0.105
 44.203	 -0.155	 -0.085
 44.211	 -0.135	 -0.065
 44.219	 -0.095	 -0.055
 44.227	 -0.065	 -0.055
 44.234	 -0.045	 -0.075
 44.242	 -0.045	 -0.085
 44.250	 -0.105	 -0.095
 44.258	 -0.095	 -0.115
 44.266	 -0.105	 -0.125
 44.273	 -0.135	 -0.125
 44.281	 -0.155	 -0.135
 44.289	 -0.205	 -0.135
 44.297	 -0.205	 -0.145
 44.305	 -0.215	 -0.135
 44.312	 -0.225	 -0.145
 44.320	 -0.215	 -0.145
 44.328	 -0.205	 -0.145
 44.336	 -0.205	 -0.145
 44.344	 -0.185	 -0.135
 44.352	 -0.195	 -0.125
 44.359	 -0.175	 -0.135
 44.367	 -0.165	 -0.095
 44.375	 -0.195	  0.135
 44.383	  0.165	  0.145
 44.391	  0.715	 -0.535
 44.398	  1.365	 -1.085
 44.406	  1.135	 -1.065
 44.414	 -0.035	 -0.555
 44.422	 -0.145	 -0.245
 44.430	 -0.145	 -0.125
 44.438	 -0.165	 -0.075
 44.445	 -0.185	 -0.065
 44.453	 -0.195	 -0.055
 44.461	 -0.185	 -0.045
 44.469	 -0.155	 -0.035
 44.477	 -0.165	 -0.035
 44.484	 -0.155	 -0.045
 44.492	 -0.155	 -0.035
 44.500	 -0.155	 -0.025
 44.508	 -0.145	 -0.025
 44.516	 -0.125	 -0.035
 44.523	 -0.095	 -0.025
 44.531	 -0.065	 -0.025
 44.539	 -0.065	 -0.015
 44.547	 -0.055	 -0.025
 44.555	 -0.025	 -0.025
 44.562	 -0.025	 -0.015
 44.570	  0.025	 -0.035
 44.578	  0.065	 -0.035
 44.586	  0.105	 -0.035
 44.594	  0.175	 -0.045
 44.602	  0.195	 -0.065
 44.609	  0.235	 -0.075
 44.617	  0.255	 -0.095
 44.625	  0.275	 -0.095
 44.633	  0.295	 -0.105
 44.641	  0.285	 -0.105
 44.648	  0.225	 -0.095
 44.656	  0.155	 -0.075
 44.664	  0.075	 -0.065
 44.672	 -0.025	 -0.065
 44.680	 -0.085	 -0.055
 44.688	 -0.145	 -0.055
 44.695	 -0.155	 -0.055
 44.703	 -0.185	 -0.055
 44.711	 -0.205	 -0.055
 44.719	 -0.195	 -0.045
 44.727	 -0.205	 -0.055
 44.734	 -0.205	 -0.065
 44.742	 -0.215	 -0.065
 44.750	 -0.225	 -0.055
 44.758	 -0.205	 -0.055
 44.766	 -0.195	 -0.055
 44.773	 -0.185	 -0.055
 44.781	 -0.185	 -0.055
 44.789	 -0.195	 -0.045
 44.797	 -0.195	 -0.045
 44.805	 -0.195	 -0.055
 44.812	 -0.215	 -0.055
 44.820	 -0.205	 -0.055
 44.828	 -0.205	 -0.065
 44.836	 -0.215	 -0.065
 44.844	 -0.195	 -0.065
 44.852	 -0.205	 -0.065
 44.859	 -0.205	 -0.065
 44.867	 -0.215	 -0.065
 44.875	 -0.225	 -0.065
 44.883	 -0.225	 -0.065
 44.891	 -0.205	 -0.065
 44.898	 -0.185	 -0.045
 44.906	 -0.155	 -0.025
 44.914	 -0.145	 -0.015
 44.922	 -0.115	 -0.035
 44.930	 -0.075	 -0.035
 44.938	 -0.095	 -0.055
 44.945	 -0.125	 -0.065
 44.953	 -0.135	 -0.095
 44.961	 -0.145	 -0.085
 44.969	 -0.155	 -0.085
 44.977	 -0.205	 -0.095
 44.984	 -0.245	 -0.095
 44.992	 -0.245	 -0.095
 45.000	 -0.255	 -0.095
 45.008	 -0.255	 -0.095
 45.016	 -0.245	 -0.095
 45.023	 -0.225	 -0.095
 45.031	 -0.215	 -0.085
 45.039	 -0.215	 -0.085
 45.047	 -0.205	 -0.085
 45.055	 -0.205	 -0.095
 45.062	 -0.215	  0.005
 45.070	 -0.085	  0.205
 45.078	  0.325	 -0.005
 45.086	  1.025	 -0.845
 45.094	  1.295	 -1.085
 45.102	  0.445	 -0.835
 45.109	 -0.245	 -0.385
 45.117	 -0.195	 -0.145
 45.125	 -0.215	 -0.075
 45.133	 -0.185	 -0.035
 45.141	 -0.215	 -0.025
 45.148	 -0.215	 -0.005
 45.156	 -0.215	  0.005
 45.164	 -0.205	  0.005
 45.172	 -0.205	  0.005
 45.180	 -0.215	 -0.005
 45.188	 -0.215	  0.005
 45.195	 -0.205	  0.005
 45.203	 -0.175	  0.005
 45.211	 -0.165	  0.005
 45.219	 -0.115	  0.005
 45.227	 -0.115	  0.005
 45.234	 -0.125	  0.005
 45.242	 -0.115	 -0.005
 45.250	 -0.105	  0.005
 45.258	 -0.065	 -0.005
 45.266	 -0.025	 -0.005
 45.273	  0.025	 -0.005
 45.281	  0.075	 -0.015
 45.289	  0.105	 -0.025
 45.297	  0.115	 -0.035
 45.305	  0.175	 -0.055
 45.312	  0.185	 -0.075
 45.320	  0.215	 -0.075
 45.328	  0.235	 -0.085
 45.336	  0.215	 -0.085
 45.344	  0.155	 -0.065
 45.352	  0.085	 -0.045
 45.359	 -0.015	 -0.045
 45.367	 -0.075	 -0.025
 45.375	 -0.145	 -0.025
 45.383	 -0.175	 -0.015
 45.391	 -0.215	 -0.035
 45.398	 -0.215	 -0.035
 45.406	 -0.185	 -0.025
 45.414	 -0.195	 -0.025
 45.422	 -0.225	 -0.035
 45.430	 -0.215	 -0.035
 45.438	 -0.225	 -0.045
 45.445	 -0.225	 -0.045
 45.453	 -0.205	 -0.045
 45.461	 -0.195	 -0.045
 45.469	 -0.185	 -0.035
 45.477	 -0.195	 -0.035
 45.484	 -0.195	 -0.025
 45.492	 -0.215	 -0.035
 45.500	 -0.225	 -0.035
 45.508	 -0.185	 -0.025
 45.516	 -0.205	 -0.035
 45.523	 -0.195	 -0.035
 45.531	 -0.185	 -0.035
 45.539	 -0.205	 -0.045
 45.547	 -0.215	 -0.055
 45.555	 -0.215	 -0.055
 45.562	 -0.225	 -0.065
 45.570	 -0.215	 -0.065
 45.578	 -0.215	 -0.075
 45.586	 -0.205	 -0.075
 45.594	 -0.185	 -0.055
 45.602	 -0.205	 -0.075
 45.609	 -0.205	 -0.075
 45.617	 -0.205	 -0.065
 45.625	 -0.225	 -0.065
 45.633	 -0.185	 -0.065
 45.641	 -0.195	 -0.065
 45.648	 -0.165	 -0.025
 45.656	 -0.125	 -0.005
 45.664	 -0.115	 -0.015
 45.672	 -0.075	 -0.015
 45.680	 -0.045	 -0.025
 45.688	 -0.115	 -0.045
 45.695	 -0.105	 -0.065
 45.703	 -0.145	 -0.075
 45.711	 -0.155	 -0.085
 45.719	 -0.165	 -0.075
 45.727	 -0.205	 -0.075
 45.734	 -0.205	 -0.085
 45.742	 -0.215	 -0.085
 45.750	 -0.235	 -0.075
 45.758	 -0.225	 -0.075
 45.766	 -0.205	 -0.075
 45.773	 -0.205	 -0.065
 45.781	 -0.175	 -0.065
 45.789	 -0.175	 -0.065
 45.797	 -0.165	 -0.075
 45.805	 -0.145	 -0.015
 45.812	 -0.125	  0.205
 45.820	  0.255	  0.155
 45.828	  0.805	 -0.565
 45.836	  1.325	 -0.965
 45.844	  0.795	 -0.895
 45.852	 -0.175	 -0.445
 45.859	 -0.175	 -0.175
 45.867	 -0.165	 -0.085
 45.875	 -0.175	 -0.035
 45.883	 -0.175	 -0.005
 45.891	 -0.185	 -0.005
 45.898	 -0.195	  0.005
 45.906	 -0.165	  0.015
 45.914	 -0.175	  0.005
 45.922	 -0.185	  0.015
 45.930	 -0.165	  0.005
 45.938	 -0.175	  0.005
 45.945	 -0.155	  0.015
 45.953	 -0.155	  0.005
 45.961	 -0.125	 -0.005
 45.969	 -0.085	  0.005
 45.977	 -0.085	 -0.005
 45.984	 -0.075	 -0.005
 45.992	 -0.055	 -0.005
 46.000	 -0.055	 -0.015
 46.008	 -0.005	 -0.025
 46.016	  0.015	 -0.025
 46.023	  0.085	 -0.045
 46.031	  0.115	 -0.055
 46.039	  0.155	 -0.055
 46.047	  0.185	 -0.085
 46.055	  0.225	 -0.095
 46.062	  0.225	 -0.095
 46.070	  0.255	 -0.105
 46.078	  0.215	 -0.095
 46.086	  0.195	 -0.085
 46.094	  0.145	 -0.065
 46.102	  0.045	 -0.045
 46.109	 -0.025	 -0.045
 46.117	 -0.085	 -0.025
 46.125	 -0.145	 -0.025
 46.133	 -0.175	 -0.025
 46.141	 -0.195	 -0.035
 46.148	 -0.195	 -0.035
 46.156	 -0.205	 -0.025
 46.164	 -0.195	 -0.025
 46.172	 -0.195	 -0.025
 46.180	 -0.195	 -0.025
 46.188	 -0.205	 -0.025
 46.195	 -0.175	 -0.025
 46.203	 -0.185	 -0.025
 46.211	 -0.175	 -0.025
 46.219	 -0.155	 -0.025
 46.227	 -0.155	 -0.025
 46.234	 -0.155	 -0.025
 46.242	 -0.155	 -0.025
 46.250	 -0.155	 -0.025
 46.258	 -0.165	 -0.035
 46.266	 -0.175	 -0.035
 46.273	 -0.165	 -0.045
 46.281	 -0.165	 -0.035
 46.289	 -0.155	 -0.045
 46.297	 -0.185	 -0.045
 46.305	 -0.155	 -0.055
 46.312	 -0.175	 -0.055
 46.320	 -0.165	 -0.055
 46.328	 -0.155	 -0.045
 46.336	 -0.135	 -0.005
 46.344	 -0.115	 -0.005
 46.352	 -0.065	 -0.005
 46.359	 -0.035	 -0.025
 46.367	 -0.035	 -0.025
 46.375	 -0.065	 -0.035
 46.383	 -0.085	 -0.055
 46.391	 -0.105	 -0.065
 46.398	 -0.125	 -0.075
 46.406	 -0.155	 -0.085
 46.414	 -0.175	 -0.075
 46.422	 -0.195	 -0.085
 46.430	 -0.195	 -0.095
 46.438	 -0.215	 -0.085
 46.445	 -0.195	 -0.085
 46.453	 -0.195	 -0.095
 46.461	 -0.185	 -0.085
 46.469	 -0.135	 -0.075
 46.477	 -0.165	 -0.075
 46.484	 -0.145	 -0.075
 46.492	 -0.165	  0.025
 46.500	 -0.025	  0.185
 46.508	  0.325	  0.105
 46.516	  1.015	 -0.615
 46.523	  1.315	 -0.865
 46.531	  0.355	 -0.755
 46.539	 -0.265	 -0.365
 46.547	 -0.175	 -0.165
 46.555	 -0.135	 -0.085
 46.562	 -0.165	 -0.045
 46.570	 -0.145	 -0.025
 46.578	 -0.145	 -0.025
 46.586	 -0.125	 -0.005
 46.594	 -0.105	 -0.005
 46.602	 -0.125	 -0.005
 46.609	 -0.115	 -0.015
 46.617	 -0.095	 -0.015
 46.625	 -0.115	 -0.005
 46.633	 -0.085	 -0.025
 46.641	 -0.065	 -0.025
 46.648	 -0.055	 -0.025
 46.656	 -0.015	 -0.025
 46.664	 -0.015	 -0.025
 46.672	 -0.005	 -0.025
 46.680	  0.015	 -0.035
 46.688	  0.035	 -0.045
 46.695	  0.065	 -0.045
 46.703	  0.125	 -0.065
 46.711	  0.175	 -0.065
 46.719	  0.215	 -0.075
 46.727	  0.255	 -0.095
 46.734	  0.285	 -0.115
 46.742	  0.315	 -0.125
 46.750	  0.305	 -0.125
 46.758	  0.325	 -0.125
 46.766	  0.275	 -0.125
 46.773	  0.225	 -0.105
 46.781	  0.165	 -0.085
 46.789	  0.095	 -0.065
 46.797	 -0.005	 -0.065
 46.805	 -0.065	 -0.045
 46.812	 -0.115	 -0.045
 46.820	 -0.135	 -0.035
 46.828	 -0.145	 -0.045
 46.836	 -0.155	 -0.045
 46.844	 -0.155	 -0.035
 46.852	 -0.165	 -0.035
 46.859	 -0.165	 -0.045
 46.867	 -0.155	 -0.035
 46.875	 -0.175	 -0.035
 46.883	 -0.155	 -0.035
 46.891	 -0.135	 -0.045
 46.898	 -0.135	 -0.045
 46.906	 -0.115	 -0.035
 46.914	 -0.115	 -0.035
 46.922	 -0.115	 -0.045
 46.930	 -0.125	 -0.045
 46.938	 -0.125	 -0.055
 46.945	 -0.125	 -0.055
 46.953	 -0.125	 -0.055
 46.961	 -0.115	 -0.065
 46.969	 -0.105	 -0.055
 46.977	 -0.115	 -0.065
 46.984	 -0.115	 -0.055
 46.992	 -0.085	 -0.025
 47.000	 -0.075	 -0.015
 47.008	 -0.015	 -0.005
 47.016	  0.035	 -0.025
 47.023	  0.025	 -0.035
 47.031	  0.015	 -0.055
 47.039	 -0.005	 -0.065
 47.047	 -0.035	 -0.085
 47.055	 -0.065	 -0.075
 47.062	 -0.085	 -0.095
 47.070	 -0.125	 -0.105
 47.078	 -0.135	 -0.105
 47.086	 -0.145	 -0.105
 47.094	 -0.135	 -0.115
 47.102	 -0.135	 -0.105
 47.109	 -0.135	 -0.105
 47.117	 -0.125	 -0.105
 47.125	 -0.145	 -0.115
 47.133	 -0.125	 -0.105
 47.141	 -0.105	 -0.105
 47.148	 -0.095	 -0.115
 47.156	 -0.085	  0.005
 47.164	  0.015	  0.185
 47.172	  0.385	  0.055
 47.180	  1.045	 -0.775
 47.188	  1.395	 -1.045
 47.195	  0.625	 -0.895
 47.203	 -0.165	 -0.425
 47.211	 -0.095	 -0.185
 47.219	 -0.065	 -0.105
 47.227	 -0.065	 -0.055
 47.234	 -0.095	 -0.035
 47.242	 -0.105	 -0.025
 47.250	 -0.105	 -0.015
 47.258	 -0.095	 -0.015
 47.266	 -0.095	 -0.015
 47.273	 -0.065	 -0.015
 47.281	 -0.065	 -0.015
 47.289	 -0.055	 -0.005
 47.297	 -0.045	 -0.015
 47.305	 -0.045	 -0.015
 47.312	 -0.025	 -0.025
 47.320	 -0.035	 -0.015
 47.328	 -0.005	 -0.025
 47.336	  0.015	 -0.025
 47.344	  0.055	 -0.025
 47.352	  0.085	 -0.025
 47.359	  0.115	 -0.035
 47.367	  0.145	 -0.035
 47.375	  0.185	 -0.045
 47.383	  0.215	 -0.065
 47.391	  0.275	 -0.075
 47.398	  0.315	 -0.085
 47.406	  0.355	 -0.095
 47.414	  0.375	 -0.095
 47.422	  0.375	 -0.105
 47.430	  0.335	 -0.105
 47.438	  0.275	 -0.085
 47.445	  0.175	 -0.075
 47.453	  0.105	 -0.065
 47.461	  0.025	 -0.045
 47.469	 -0.015	 -0.035
 47.477	 -0.065	 -0.045
 47.484	 -0.085	 -0.045
 47.492	 -0.095	 -0.045
 47.500	 -0.125	 -0.045
 47.508	 -0.135	 -0.055
 47.516	 -0.145	 -0.055
 47.523	 -0.125	 -0.055
 47.531	 -0.105	 -0.045
 47.539	 -0.115	 -0.055
 47.547	 -0.125	 -0.045
 47.555	 -0.125	 -0.045
 47.562	 -0.135	 -0.045
 47.570	 -0.105	 -0.045
 47.578	 -0.105	 -0.055
 47.586	 -0.105	 -0.055
 47.594	 -0.085	 -0.045
 47.602	 -0.095	 -0.055
 47.609	 -0.105	 -0.055
 47.617	 -0.105	 -0.065
 47.625	 -0.145	 -0.065
 47.633	 -0.115	 -0.065
 47.641	 -0.105	 -0.075
 47.648	 -0.115	 -0.075
 47.656	 -0.075	 -0.065
 47.664	 -0.105	 -0.065
 47.672	 -0.115	 -0.075
 47.680	 -0.075	 -0.035
 47.688	 -0.075	 -0.015
 47.695	 -0.035	 -0.015
 47.703	  0.015	 -0.025
 47.711	  0.055	 -0.035
 47.719	  0.035	 -0.055
 47.727	 -0.005	 -0.065
 47.734	 -0.025	 -0.085
 47.742	 -0.055	 -0.075
 47.750	 -0.095	 -0.095
 47.758	 -0.115	 -0.095
 47.766	 -0.105	 -0.105
 47.773	 -0.125	 -0.105
 47.781	 -0.115	 -0.105
 47.789	 -0.115	 -0.105
 47.797	 -0.125	 -0.105
 47.805	 -0.095	 -0.105
 47.812	 -0.115	 -0.105
 47.820	 -0.095	 -0.105
 47.828	 -0.095	 -0.105
 47.836	 -0.055	 -0.085
 47.844	 -0.055	  0.175
 47.852	  0.285	  0.175
 47.859	  0.755	 -0.465
 47.867	  1.415	 -1.085
 47.875	  1.155	 -1.055
 47.883	  0.115	 -0.605
 47.891	 -0.075	 -0.245
 47.898	 -0.055	 -0.105
 47.906	 -0.035	 -0.055
 47.914	 -0.055	 -0.025
 47.922	 -0.075	 -0.015
 47.930	 -0.075	 -0.005
 47.938	 -0.095	 -0.005
 47.945	 -0.075	  0.005
 47.953	 -0.055	 -0.005
 47.961	 -0.055	  0.005
 47.969	 -0.025	  0.005
 47.977	 -0.025	 -0.005
 47.984	 -0.025	 -0.005
 47.992	 -0.015	 -0.015
 48.000	 -0.015	 -0.005
 48.008	  0.015	 -0.015
 48.016	  0.035	 -0.005
 48.023	  0.065	 -0.005
 48.031	  0.085	 -0.005
 48.039	  0.115	 -0.015
 48.047	  0.135	 -0.025
 48.055	  0.185	 -0.035
 48.062	  0.205	 -0.045
 48.070	  0.265	 -0.055
 48.078	  0.295	 -0.075
 48.086	  0.335	 -0.095
 48.094	  0.365	 -0.095
 48.102	  0.395	 -0.095
 48.109	  0.385	 -0.105
 48.117	  0.335	 -0.095
 48.125	  0.285	 -0.075
 48.133	  0.195	 -0.065
 48.141	  0.125	 -0.065
 48.148	  0.045	 -0.045
 48.156	 -0.005	 -0.035
 48.164	 -0.035	 -0.035
 48.172	 -0.075	 -0.035
 48.180	 -0.075	 -0.045
 48.188	 -0.095	 -0.045
 48.195	 -0.095	 -0.055
 48.203	 -0.095	 -0.055
 48.211	 -0.085	 -0.045
 48.219	 -0.075	 -0.055
 48.227	 -0.075	 -0.055
 48.234	 -0.085	 -0.055
 48.242	 -0.065	 -0.055
 48.250	 -0.085	 -0.055
 48.258	 -0.075	 -0.045
 48.266	 -0.065	 -0.045
 48.273	 -0.065	 -0.045
 48.281	 -0.065	 -0.035
 48.289	 -0.065	 -0.045
 48.297	 -0.075	 -0.045
 48.305	 -0.075	 -0.045
 48.312	 -0.105	 -0.055
 48.320	 -0.075	 -0.055
 48.328	 -0.075	 -0.055
 48.336	 -0.075	 -0.055
 48.344	 -0.065	 -0.055
 48.352	 -0.075	 -0.065
 48.359	 -0.085	 -0.065
 48.367	 -0.095	 -0.065
 48.375	 -0.065	 -0.045
 48.383	 -0.055	 -0.025
 48.391	 -0.025	 -0.015
 48.398	  0.025	 -0.025
 48.406	  0.065	 -0.025
 48.414	  0.055	 -0.045
 48.422	  0.005	 -0.055
 48.430	  0.005	 -0.075
 48.438	 -0.045	 -0.065
 48.445	 -0.055	 -0.085
 48.453	 -0.085	 -0.085
 48.461	 -0.105	 -0.085
 48.469	 -0.105	 -0.085
 48.477	 -0.105	 -0.095
 48.484	 -0.105	 -0.095
 48.492	 -0.095	 -0.095
 48.500	 -0.115	 -0.095
 48.508	 -0.105	 -0.085
 48.516	 -0.105	 -0.085
 48.523	 -0.085	 -0.085
 48.531	 -0.075	 -0.075
 48.539	 -0.065	  0.085
 48.547	  0.135	  0.195
 48.555	  0.545	 -0.145
 48.562	  1.205	 -0.955
 48.570	  1.315	 -1.105
 48.578	  0.395	 -0.755
 48.586	 -0.075	 -0.295
 48.594	 -0.055	 -0.115
 48.602	 -0.055	 -0.065
 48.609	 -0.075	 -0.025
 48.617	 -0.115	 -0.015
 48.625	 -0.095	 -0.005
 48.633	 -0.095	 -0.015
 48.641	 -0.095	 -0.005
 48.648	 -0.095	 -0.005
 48.656	 -0.065	 -0.005
 48.664	 -0.065	 -0.005
 48.672	 -0.055	 -0.005
 48.680	 -0.045	 -0.005
 48.688	 -0.065	 -0.005
 48.695	 -0.035	 -0.005
 48.703	 -0.005	 -0.015
 48.711	  0.005	 -0.015
 48.719	  0.025	 -0.015
 48.727	  0.045	 -0.005
 48.734	  0.065	 -0.025
 48.742	  0.105	 -0.025
 48.750	  0.125	 -0.035
 48.758	  0.185	 -0.035
 48.766	  0.235	 -0.055
 48.773	  0.265	 -0.065
 48.781	  0.325	 -0.085
 48.789	  0.325	 -0.095
 48.797	  0.345	 -0.095
 48.805	  0.335	 -0.085
 48.812	  0.245	 -0.095
 48.820	  0.235	 -0.065
 48.828	  0.195	 -0.065
 48.836	  0.115	 -0.055
 48.844	  0.065	 -0.045
 48.852	  0.015	 -0.015
 48.859	 -0.045	 -0.025
 48.867	 -0.075	 -0.025
 48.875	 -0.105	 -0.035
 48.883	 -0.125	 -0.035
 48.891	 -0.115	 -0.045
 48.898	 -0.125	 -0.045
 48.906	 -0.105	 -0.045
 48.914	 -0.085	 -0.045
 48.922	 -0.105	 -0.045
 48.930	 -0.105	 -0.035
 48.938	 -0.105	 -0.045
 48.945	 -0.095	 -0.045
 48.953	 -0.085	 -0.045
 48.961	 -0.095	 -0.045
 48.969	 -0.085	 -0.045
 48.977	 -0.065	 -0.045
 48.984	 -0.085	 -0.045
 48.992	 -0.075	 -0.045
 49.000	 -0.085	 -0.045
 49.008	 -0.095	 -0.055
 49.016	 -0.095	 -0.055
 49.023	 -0.095	 -0.055
 49.031	 -0.065	 -0.045
 49.039	 -0.055	 -0.005
 49.047	 -0.045	 -0.005
 49.055	  0.005	 -0.005
 49.062	  0.025	 -0.025
 49.070	  0.035	 -0.035
 49.078	  0.005	 -0.045
 49.086	 -0.025	 -0.075
 49.094	 -0.015	 -0.075
 49.102	 -0.055	 -0.065
 49.109	 -0.085	 -0.085
 49.117	 -0.125	 -0.085
 49.125	 -0.145	 -0.085
 49.133	 -0.125	 -0.085
 49.141	 -0.125	 -0.085
 49.148	 -0.125	 -0.085
 49.156	 -0.115	 -0.075
 49.164	 -0.125	 -0.085
 49.172	 -0.115	 -0.085
 49.180	 -0.135	 -0.075
 49.188	 -0.125	 -0.085
 49.195	 -0.085	 -0.035
 49.203	 -0.065	  0.195
 49.211	  0.315	  0.105
 49.219	  0.905	 -0.635
 49.227	  1.415	 -1.025
 49.234	  0.825	 -0.915
 49.242	 -0.095	 -0.405
 49.250	 -0.105	 -0.155
 49.258	 -0.085	 -0.075
 49.266	 -0.095	 -0.025
 49.273	 -0.105	 -0.005
 49.281	 -0.095	  0.005
 49.289	 -0.115	  0.005
 49.297	 -0.115	  0.005
 49.305	 -0.115	  0.005
 49.312	 -0.135	  0.005
 49.320	 -0.105	  0.005
 49.328	 -0.095	  0.005
 49.336	 -0.075	  0.005
 49.344	 -0.045	  0.025
 49.352	 -0.045	  0.005
 49.359	 -0.035	  0.005
 49.367	 -0.025	  0.005
 49.375	 -0.025	 -0.005
 49.383	  0.005	 -0.005
 49.391	  0.055	 -0.005
 49.398	  0.075	 -0.015
 49.406	  0.115	 -0.015
 49.414	  0.145	 -0.025
 49.422	  0.185	 -0.055
 49.430	  0.205	 -0.055
 49.438	  0.235	 -0.075
 49.445	  0.275	 -0.085
 49.453	  0.295	 -0.095
 49.461	  0.305	 -0.095
 49.469	  0.305	 -0.085
 49.477	  0.245	 -0.065
 49.484	  0.165	 -0.055
 49.492	  0.085	 -0.035
 49.500	  0.005	 -0.025
 49.508	 -0.065	 -0.015
 49.516	 -0.085	 -0.015
 49.523	 -0.115	 -0.015
 49.531	 -0.135	 -0.015
 49.539	 -0.145	 -0.015
 49.547	 -0.165	 -0.015
 49.555	 -0.165	 -0.015
 49.562	 -0.175	 -0.025
 49.570	 -0.175	 -0.025
 49.578	 -0.155	 -0.025
 49.586	 -0.155	 -0.025
 49.594	 -0.145	 -0.015
 49.602	 -0.135	 -0.015
 49.609	 -0.145	 -0.015
 49.617	 -0.135	 -0.025
 49.625	 -0.155	 -0.025
 49.633	 -0.165	 -0.025
 49.641	 -0.155	 -0.025
 49.648	 -0.145	 -0.025
 49.656	 -0.145	 -0.025
 49.664	 -0.135	 -0.015
 49.672	 -0.125	 -0.005
 49.680	 -0.105	  0.005
 49.688	 -0.065	  0.005
 49.695	 -0.035	 -0.005
 49.703	 -0.025	 -0.015
 49.711	 -0.025	 -0.045
 49.719	 -0.065	 -0.055
 49.727	 -0.065	 -0.065
 49.734	 -0.105	 -0.065
 49.742	 -0.105	 -0.075
 49.750	 -0.155	 -0.085
 49.758	 -0.185	 -0.075
 49.766	 -0.195	 -0.085
 49.773	 -0.195	 -0.085
 49.781	 -0.175	 -0.085
 49.789	 -0.175	 -0.075
 49.797	 -0.185	 -0.075
 49.805	 -0.175	 -0.075
 49.812	 -0.175	 -0.075
 49.820	 -0.165	 -0.065
 49.828	 -0.145	 -0.075
 49.836	 -0.155	  0.055
 49.844	  0.015	  0.205
 49.852	  0.405	 -0.115
 49.859	  1.215	 -0.875
 49.867	  1.235	 -0.955
 49.875	  0.005	 -0.575
 49.883	 -0.185	 -0.245
 49.891	 -0.165	 -0.135
 49.898	 -0.145	 -0.085
 49.906	 -0.145	 -0.045
 49.914	 -0.165	 -0.005
 49.922	 -0.175	 -0.005
 49.930	 -0.165	 -0.005
 49.938	 -0.145	  0.005
 49.945	 -0.145	  0.015
 49.953	 -0.145	  0.005
 49.961	 -0.145	  0.005
 49.969	 -0.125	  0.005
 49.977	 -0.105	  0.005
 49.984	 -0.115	 -0.005
 49.992	 -0.095	 -0.015
 50.000	 -0.075	 -0.015
 50.008	 -0.055	 -0.035
 50.016	 -0.025	 -0.035
 50.023	  0.015	 -0.045
 50.031	  0.065	 -0.045
 50.039	  0.075	 -0.045
 50.047	  0.095	 -0.055
 50.055	  0.155	 -0.055
 50.062	  0.175	 -0.065
 50.070	  0.225	 -0.085
 50.078	  0.255	 -0.095
 50.086	  0.265	 -0.095
 50.094	  0.285	 -0.095
 50.102	  0.235	 -0.085
 50.109	  0.205	 -0.075
 50.117	  0.135	 -0.045
 50.125	  0.025	 -0.015
 50.133	 -0.025	 -0.005
 50.141	 -0.085	 -0.005
 50.148	 -0.125	 -0.005
 50.156	 -0.155	 -0.005
 50.164	 -0.175	 -0.005
 50.172	 -0.185	 -0.025
 50.180	 -0.205	 -0.025
 50.188	 -0.215	 -0.045
 50.195	 -0.225	 -0.035
 50.203	 -0.205	 -0.045
 50.211	 -0.205	 -0.045
 50.219	 -0.185	 -0.045
 50.227	 -0.175	 -0.045
 50.234	 -0.175	 -0.045
 50.242	 -0.165	 -0.045
 50.250	 -0.175	 -0.055
 50.258	 -0.165	 -0.035
 50.266	 -0.165	 -0.035
 50.273	 -0.145	 -0.025
 50.281	 -0.135	 -0.025
 50.289	 -0.135	 -0.005
 50.297	 -0.115	  0.005
 50.305	 -0.105	  0.015
 50.312	 -0.065	  0.015
 50.320	 -0.025	 -0.005
 50.328	 -0.045	 -0.025
 50.336	 -0.065	 -0.035
 50.344	 -0.075	 -0.045
 50.352	 -0.115	 -0.055
 50.359	 -0.145	 -0.065
 50.367	 -0.155	 -0.085
 50.375	 -0.225	 -0.095
 50.383	 -0.235	 -0.095
 50.391	 -0.235	 -0.105
 50.398	 -0.235	 -0.095
 50.406	 -0.215	 -0.095
 50.414	 -0.215	 -0.085
 50.422	 -0.215	 -0.095
 50.430	 -0.205	 -0.085
 50.438	 -0.215	 -0.085
 50.445	 -0.185	 -0.085
 50.453	 -0.165	 -0.085
 50.461	 -0.225	  0.135
 50.469	  0.075	  0.165
 50.477	  0.565	 -0.325
 50.484	  1.345	 -0.925
 50.492	  0.925	 -0.925
 50.500	 -0.145	 -0.525
 50.508	 -0.185	 -0.245
 50.516	 -0.165	 -0.125
 50.523	 -0.145	 -0.075
 50.531	 -0.135	 -0.035
 50.539	 -0.155	 -0.025
 50.547	 -0.165	 -0.025
 50.555	 -0.155	 -0.025
 50.562	 -0.165	 -0.025
 50.570	 -0.155	 -0.025
 50.578	 -0.145	 -0.025
 50.586	 -0.105	 -0.025
 50.594	 -0.095	 -0.015
 50.602	 -0.095	 -0.015
 50.609	 -0.095	 -0.025
 50.617	 -0.085	 -0.025
 50.625	 -0.065	 -0.025
 50.633	 -0.055	 -0.025
 50.641	 -0.015	 -0.035
 50.648	  0.015	 -0.045
 50.656	  0.055	 -0.045
 50.664	  0.065	 -0.045
 50.672	  0.105	 -0.065
 50.680	  0.155	 -0.065
 50.688	  0.175	 -0.085
 50.695	  0.215	 -0.095
 50.703	  0.255	 -0.115
 50.711	  0.265	 -0.115
 50.719	  0.285	 -0.115
 50.727	  0.255	 -0.115
 50.734	  0.195	 -0.105
 50.742	  0.125	 -0.095
 50.750	  0.025	 -0.075
 50.758	 -0.045	 -0.055
 50.766	 -0.105	 -0.055
 50.773	 -0.145	 -0.055
 50.781	 -0.155	 -0.045
 50.789	 -0.175	 -0.035
 50.797	 -0.205	 -0.045
 50.805	 -0.195	 -0.045
 50.812	 -0.215	 -0.045
 50.820	 -0.205	 -0.045
 50.828	 -0.205	 -0.055
 50.836	 -0.185	 -0.045
 50.844	 -0.185	 -0.045
 50.852	 -0.175	 -0.045
 50.859	 -0.175	 -0.045
 50.867	 -0.175	 -0.045
 50.875	 -0.185	 -0.045
 50.883	 -0.175	 -0.045
 50.891	 -0.175	 -0.055
 50.898	 -0.175	 -0.055
 50.906	 -0.175	 -0.055
 50.914	 -0.165	 -0.055
 50.922	 -0.175	 -0.065
 50.930	 -0.175	 -0.055
 50.938	 -0.155	 -0.025
 50.945	 -0.135	 -0.015
 50.953	 -0.105	 -0.005
 50.961	 -0.065	 -0.025
 50.969	 -0.045	 -0.045
 50.977	 -0.055	 -0.055
 50.984	 -0.105	 -0.065
 50.992	 -0.125	 -0.085
 51.000	 -0.145	 -0.085
 51.008	 -0.155	 -0.095
 51.016	 -0.195	 -0.105
 51.023	 -0.215	 -0.105
 51.031	 -0.245	 -0.105
 51.039	 -0.225	 -0.105
 51.047	 -0.235	 -0.115
 51.055	 -0.235	 -0.105
 51.062	 -0.235	 -0.105
 51.070	 -0.235	 -0.105
 51.078	 -0.235	 -0.105
 51.086	 -0.205	 -0.105
 51.094	 -0.195	 -0.105
 51.102	 -0.185	 -0.015
 51.109	 -0.135	  0.185
 51.117	  0.215	  0.065
 51.125	  0.945	 -0.785
 51.133	  1.305	 -1.065
 51.141	  0.535	 -0.895
 51.148	 -0.175	 -0.425
 51.156	 -0.155	 -0.175
 51.164	 -0.155	 -0.085
 51.172	 -0.165	 -0.045
 51.180	 -0.175	 -0.025
 51.188	 -0.175	 -0.015
 51.195	 -0.165	 -0.015
 51.203	 -0.155	 -0.025
 51.211	 -0.135	 -0.025
 51.219	 -0.145	 -0.015
 51.227	 -0.125	 -0.015
 51.234	 -0.135	 -0.015
 51.242	 -0.105	 -0.015
 51.250	 -0.115	 -0.025
 51.258	 -0.095	 -0.015
 51.266	 -0.095	 -0.025
 51.273	 -0.065	 -0.025
 51.281	 -0.055	 -0.015
 51.289	 -0.035	 -0.025
 51.297	 -0.005	 -0.035
 51.305	  0.015	 -0.045
 51.312	  0.045	 -0.045
 51.320	  0.085	 -0.065
 51.328	  0.125	 -0.075
 51.336	  0.165	 -0.085
 51.344	  0.195	 -0.095
 51.352	  0.215	 -0.115
 51.359	  0.215	 -0.125
 51.367	  0.235	 -0.115
 51.375	  0.155	 -0.095
 51.383	  0.085	 -0.085
 51.391	 -0.005	 -0.065
 51.398	 -0.055	 -0.065
 51.406	 -0.075	 -0.065
 51.414	 -0.175	 -0.035
 51.422	 -0.225	 -0.045
 51.430	 -0.225	 -0.055
 51.438	 -0.265	 -0.055
 51.445	 -0.245	 -0.055
 51.453	 -0.245	 -0.065
 51.461	 -0.235	 -0.065
 51.469	 -0.225	 -0.055
 51.477	 -0.225	 -0.065
 51.484	 -0.225	 -0.065
 51.492	 -0.235	 -0.055
 51.500	 -0.235	 -0.055
 51.508	 -0.225	 -0.055
 51.516	 -0.215	 -0.065
 51.523	 -0.185	 -0.065
 51.531	 -0.235	 -0.045
 51.539	 -0.215	 -0.045
 51.547	 -0.245	 -0.055
 51.555	 -0.215	 -0.075
 51.562	 -0.235	 -0.065
 51.570	 -0.215	 -0.065
 51.578	 -0.245	 -0.075
 51.586	 -0.225	 -0.065
 51.594	 -0.215	 -0.065
 51.602	 -0.225	 -0.085
 51.609	 -0.205	 -0.075
 51.617	 -0.195	 -0.035
 51.625	 -0.195	 -0.015
 51.633	 -0.145	 -0.035
 51.641	 -0.075	 -0.045
 51.648	 -0.075	 -0.065
 51.656	 -0.075	 -0.075
 51.664	 -0.135	 -0.095
 51.672	 -0.155	 -0.095
 51.680	 -0.205	 -0.095
 51.688	 -0.235	 -0.105
 51.695	 -0.255	 -0.105
 51.703	 -0.245	 -0.115
 51.711	 -0.235	 -0.115
 51.719	 -0.225	 -0.105
 51.727	 -0.245	 -0.105
 51.734	 -0.215	 -0.115
 51.742	 -0.255	 -0.095
 51.750	 -0.235	 -0.105
 51.758	 -0.195	 -0.125
 51.766	 -0.185	 -0.105
 51.773	 -0.205	 -0.085
 51.781	 -0.185	  0.165
 51.789	  0.205	  0.145
 51.797	  0.695	 -0.515
 51.805	  1.305	 -1.065
 51.812	  0.835	 -1.025
 51.820	 -0.145	 -0.545
 51.828	 -0.185	 -0.235
 51.836	 -0.185	 -0.125
 51.844	 -0.185	 -0.065
 51.852	 -0.205	 -0.035
 51.859	 -0.205	 -0.045
 51.867	 -0.205	 -0.025
 51.875	 -0.205	 -0.035
 51.883	 -0.175	 -0.035
 51.891	 -0.175	 -0.035
 51.898	 -0.165	 -0.035
 51.906	 -0.135	 -0.035
 51.914	 -0.155	 -0.015
 51.922	 -0.135	 -0.025
 51.930	 -0.135	 -0.025
 51.938	 -0.145	 -0.025
 51.945	 -0.115	 -0.025
 51.953	 -0.075	 -0.045
 51.961	 -0.045	 -0.045
 51.969	 -0.015	 -0.045
 51.977	  0.015	 -0.045
 51.984	  0.025	 -0.045
 51.992	  0.055	 -0.055
 52.000	  0.095	 -0.055
 52.008	  0.155	 -0.085
 52.016	  0.185	 -0.095
 52.023	  0.215	 -0.105
 52.031	  0.235	 -0.105
 52.039	  0.265	 -0.115
 52.047	  0.195	 -0.095
 52.055	  0.185	 -0.085
 52.062	  0.065	 -0.055
 52.070	 -0.005	 -0.035
 52.078	 -0.075	 -0.035
 52.086	 -0.105	 -0.035
 52.094	 -0.135	 -0.025
 52.102	 -0.175	 -0.025
 52.109	 -0.185	 -0.045
 52.117	 -0.175	 -0.065
 52.125	 -0.205	 -0.055
 52.133	 -0.215	 -0.025
 52.141	 -0.225	 -0.035
 52.148	 -0.195	 -0.045
 52.156	 -0.175	 -0.035
 52.164	 -0.165	 -0.045
 52.172	 -0.165	 -0.055
 52.180	 -0.185	 -0.045
 52.188	 -0.175	 -0.055
 52.195	 -0.145	 -0.055
 52.203	 -0.195	 -0.035
 52.211	 -0.175	 -0.045
 52.219	 -0.165	 -0.045
 52.227	 -0.195	 -0.045
 52.234	 -0.165	 -0.065
 52.242	 -0.155	 -0.065
 52.250	 -0.215	 -0.055
 52.258	 -0.225	 -0.055
 52.266	 -0.205	 -0.065
 52.273	 -0.205	 -0.065
 52.281	 -0.165	 -0.075
 52.289	 -0.165	 -0.085
 52.297	 -0.185	 -0.085
 52.305	 -0.175	 -0.035
 52.312	 -0.175	 -0.015
 52.320	 -0.115	 -0.035
 52.328	 -0.095	 -0.045
 52.336	 -0.025	 -0.045
 52.344	 -0.055	 -0.065
 52.352	 -0.085	 -0.075
 52.359	 -0.115	 -0.085
 52.367	 -0.165	 -0.085
 52.375	 -0.195	 -0.105
 52.383	 -0.205	 -0.115
 52.391	 -0.235	 -0.095
 52.398	 -0.225	 -0.105
 52.406	 -0.185	 -0.095
 52.414	 -0.225	 -0.105
 52.422	 -0.215	 -0.105
 52.430	 -0.185	 -0.105
 52.438	 -0.235	 -0.105
 52.445	 -0.215	 -0.095
 52.453	 -0.185	 -0.095
 52.461	 -0.195	 -0.085
 52.469	 -0.125	  0.125
 52.477	  0.145	  0.165
 52.484	  0.505	 -0.265
 52.492	  1.245	 -1.005
 52.500	  1.085	 -1.055
 52.508	 -0.045	 -0.615
 52.516	 -0.215	 -0.255
 52.523	 -0.185	 -0.125
 52.531	 -0.145	 -0.065
 52.539	 -0.175	 -0.035
 52.547	 -0.145	 -0.055
 52.555	 -0.155	 -0.055
 52.562	 -0.205	 -0.005
 52.570	 -0.195	 -0.005
 52.578	 -0.185	 -0.015
 52.586	 -0.165	 -0.025
 52.594	 -0.165	 -0.025
 52.602	 -0.155	 -0.005
 52.609	 -0.135	 -0.035
 52.617	 -0.095	 -0.025
 52.625	 -0.135	 -0.015
 52.633	 -0.105	 -0.025
 52.641	 -0.045	 -0.045
 52.648	 -0.035	 -0.055
 52.656	 -0.085	 -0.015
 52.664	  0.025	 -0.055
 52.672	  0.055	 -0.065
 52.680	  0.035	 -0.035
 52.688	  0.065	 -0.055
 52.695	  0.145	 -0.075
 52.703	  0.195	 -0.115
 52.711	  0.265	 -0.135
 52.719	  0.215	 -0.125
 52.727	  0.245	 -0.115
 52.734	  0.255	 -0.115
 52.742	  0.155	 -0.085
 52.750	  0.105	 -0.075
 52.758	  0.055	 -0.075
 52.766	  0.085	 -0.115
 52.773	 -0.055	 -0.075
 52.781	 -0.185	 -0.015
 52.789	 -0.195	 -0.025
 52.797	 -0.185	 -0.045
 52.805	 -0.195	 -0.045
 52.812	 -0.185	 -0.075
 52.820	 -0.135	 -0.085
 52.828	 -0.185	 -0.095
 52.836	 -0.235	 -0.035
 52.844	 -0.255	 -0.025
 52.852	 -0.195	 -0.035
 52.859	 -0.195	 -0.045
 52.867	 -0.155	 -0.085
 52.875	 -0.055	 -0.135
 52.883	 -0.255	 -0.015
 52.891	 -0.245	 -0.015
 52.898	 -0.185	 -0.045
 52.906	 -0.165	 -0.055
 52.914	 -0.185	 -0.055
 52.922	 -0.105	 -0.105
 52.930	 -0.125	 -0.105
 52.938	 -0.125	 -0.125
 52.945	 -0.195	 -0.075
 52.953	 -0.275	 -0.025
 52.961	 -0.195	 -0.055
 52.969	 -0.165	 -0.055
 52.977	 -0.165	 -0.055
 52.984	 -0.135	 -0.035
 52.992	 -0.135	 -0.025
 53.000	 -0.095	 -0.035
 53.008	  0.015	 -0.085
 53.016	 -0.075	 -0.025
 53.023	 -0.105	 -0.045
 53.031	 -0.085	 -0.095
 53.039	 -0.005	 -0.115
 53.047	 -0.175	 -0.085
 53.055	 -0.235	 -0.065
 53.062	 -0.205	 -0.095
 53.070	 -0.175	 -0.125
 53.078	 -0.175	 -0.125
 53.086	 -0.265	 -0.075
 53.094	 -0.205	 -0.085
 53.102	 -0.185	 -0.095
 53.109	 -0.175	 -0.095
 53.117	 -0.185	 -0.085
 53.125	 -0.195	 -0.085
 53.133	 -0.165	 -0.075
 53.141	 -0.175	  0.005
 53.148	 -0.055	  0.185
 53.156	  0.305	  0.125
 53.164	  0.915	 -0.565
 53.172	  1.385	 -0.915
 53.180	  0.665	 -0.895
 53.188	 -0.335	 -0.445
 53.195	 -0.185	 -0.195
 53.203	 -0.155	 -0.105
 53.211	 -0.135	 -0.045
 53.219	 -0.115	 -0.015
 53.227	 -0.155	 -0.015
 53.234	 -0.155	 -0.005
 53.242	 -0.135	 -0.005
 53.250	 -0.155	 -0.005
 53.258	 -0.145	  0.005
 53.266	 -0.125	 -0.005
 53.273	 -0.105	 -0.005
 53.281	 -0.065	  0.005
 53.289	 -0.075	 -0.005
 53.297	 -0.065	 -0.005
 53.305	 -0.045	 -0.015
 53.312	 -0.065	 -0.015
 53.320	 -0.015	 -0.025
 53.328	  0.015	 -0.025
 53.336	  0.045	 -0.025
 53.344	  0.085	 -0.025
 53.352	  0.125	 -0.035
 53.359	  0.165	 -0.055
 53.367	  0.205	 -0.065
 53.375	  0.225	 -0.085
 53.383	  0.285	 -0.095
 53.391	  0.315	 -0.105
 53.398	  0.305	 -0.105
 53.406	  0.335	 -0.105
 53.414	  0.275	 -0.095
 53.422	  0.205	 -0.075
 53.430	  0.135	 -0.055
 53.438	  0.035	 -0.055
 53.445	  0.005	 -0.045
 53.453	 -0.105	 -0.045
 53.461	 -0.135	 -0.035
 53.469	 -0.095	 -0.025
 53.477	 -0.135	 -0.025
 53.484	 -0.125	 -0.035
 53.492	 -0.135	 -0.035
 53.500	 -0.145	 -0.035
 53.508	 -0.125	 -0.035
 53.516	 -0.105	 -0.045
 53.523	 -0.115	 -0.045
 53.531	 -0.105	 -0.035
 53.539	 -0.095	 -0.035
 53.547	 -0.095	 -0.035
 53.555	 -0.085	 -0.035
 53.562	 -0.105	 -0.035
 53.570	 -0.065	 -0.055
 53.578	 -0.065	 -0.055
 53.586	 -0.075	 -0.065
 53.594	 -0.095	 -0.045
 53.602	 -0.105	 -0.035
 53.609	 -0.105	 -0.045
 53.617	 -0.095	 -0.045
 53.625	 -0.095	 -0.015
 53.633	 -0.045	 -0.005
 53.641	 -0.025	 -0.005
 53.648	  0.045	 -0.015
 53.656	  0.065	 -0.035
 53.664	  0.045	 -0.045
 53.672	  0.005	 -0.065
 53.680	 -0.015	 -0.095
 53.688	 -0.065	 -0.095
 53.695	 -0.065	 -0.095
 53.703	 -0.115	 -0.115
 53.711	 -0.135	 -0.125
 53.719	 -0.115	 -0.125
 53.727	 -0.135	 -0.115
 53.734	 -0.125	 -0.115
 53.742	 -0.135	 -0.115
 53.750	 -0.145	 -0.115
 53.758	 -0.125	 -0.115
 53.766	 -0.115	 -0.105
 53.773	 -0.105	 -0.115
 53.781	 -0.085	 -0.105
 53.789	 -0.105	 -0.065
 53.797	 -0.085	  0.165
 53.805	  0.265	  0.145
 53.812	  0.805	 -0.495
 53.820	  1.415	 -0.995
 53.828	  0.935	 -0.985
 53.836	 -0.145	 -0.515
 53.844	 -0.095	 -0.195
 53.852	 -0.085	 -0.105
 53.859	 -0.085	 -0.055
 53.867	 -0.115	 -0.035
 53.875	 -0.125	 -0.025
 53.883	 -0.105	 -0.015
 53.891	 -0.095	 -0.015
 53.898	 -0.105	 -0.005
 53.906	 -0.065	 -0.005
 53.914	 -0.075	  0.005
 53.922	 -0.075	 -0.015
 53.930	 -0.075	 -0.005
 53.938	 -0.045	  0.005
 53.945	 -0.035	  0.015
 53.953	 -0.015	  0.005
 53.961	 -0.005	  0.005
 53.969	  0.025	  0.005
 53.977	  0.045	 -0.005
 53.984	  0.055	 -0.005
 53.992	  0.095	 -0.015
 54.000	  0.115	 -0.025
 54.008	  0.155	 -0.035
 54.016	  0.215	 -0.055
 54.023	  0.255	 -0.055
 54.031	  0.305	 -0.075
 54.039	  0.335	 -0.095
 54.047	  0.335	 -0.105
 54.055	  0.325	 -0.095
 54.062	  0.305	 -0.105
 54.070	  0.225	 -0.085
 54.078	  0.155	 -0.085
 54.086	  0.075	 -0.055
 54.094	  0.015	 -0.055
 54.102	 -0.055	 -0.045
 54.109	 -0.105	 -0.045
 54.117	 -0.135	 -0.045
 54.125	 -0.155	 -0.045
 54.133	 -0.175	 -0.055
 54.141	 -0.165	 -0.055
 54.148	 -0.175	 -0.065
 54.156	 -0.155	 -0.045
 54.164	 -0.155	 -0.055
 54.172	 -0.155	 -0.055
 54.180	 -0.165	 -0.045
 54.188	 -0.165	 -0.055
 54.195	 -0.145	 -0.065
 54.203	 -0.155	 -0.065
 54.211	 -0.145	 -0.055
 54.219	 -0.135	 -0.055
 54.227	 -0.125	 -0.055
 54.234	 -0.165	 -0.055
 54.242	 -0.135	 -0.045
 54.250	 -0.155	 -0.055
 54.258	 -0.145	 -0.045
 54.266	 -0.145	 -0.055
 54.273	 -0.135	 -0.035
 54.281	 -0.135	 -0.045
 54.289	 -0.135	 -0.035
 54.297	 -0.125	 -0.015
 54.305	 -0.095	  0.005
 54.312	 -0.075	 -0.005
 54.320	 -0.055	 -0.025
 54.328	 -0.015	 -0.045
 54.336	 -0.045	 -0.065
 54.344	 -0.065	 -0.075
 54.352	 -0.085	 -0.085
 54.359	 -0.115	 -0.075
 54.367	 -0.135	 -0.095
 54.375	 -0.185	 -0.095
 54.383	 -0.185	 -0.095
 54.391	 -0.175	 -0.105
 54.398	 -0.195	 -0.105
 54.406	 -0.165	 -0.095
 54.414	 -0.165	 -0.095
 54.422	 -0.165	 -0.105
 54.430	 -0.155	 -0.095
 54.438	 -0.155	 -0.095
 54.445	 -0.135	 -0.105
 54.453	 -0.115	 -0.015
 54.461	 -0.025	  0.205
 54.469	  0.345	  0.125
 54.477	  0.965	 -0.695
 54.484	  1.425	 -1.065
 54.492	  0.805	 -0.985
 54.500	 -0.145	 -0.505
 54.508	 -0.115	 -0.185
 54.516	 -0.115	 -0.105
 54.523	 -0.105	 -0.045
 54.531	 -0.115	 -0.015
 54.539	 -0.135	 -0.005
 54.547	 -0.145	 -0.005
 54.555	 -0.135	 -0.005
 54.562	 -0.165	 -0.015
 54.570	 -0.125	 -0.015
 54.578	 -0.125	 -0.015
 54.586	 -0.095	 -0.015
 54.594	 -0.085	 -0.015
 54.602	 -0.085	 -0.005
 54.609	 -0.075	 -0.015
 54.617	 -0.065	 -0.015
 54.625	 -0.065	 -0.015
 54.633	 -0.025	 -0.015
 54.641	 -0.015	 -0.015
 54.648	  0.025	 -0.015
 54.656	  0.075	 -0.025
 54.664	  0.095	 -0.025
 54.672	  0.125	 -0.035
 54.680	  0.175	 -0.055
 54.688	  0.215	 -0.065
 54.695	  0.255	 -0.075
 54.703	  0.285	 -0.095
 54.711	  0.305	 -0.105
 54.719	  0.325	 -0.105
 54.727	  0.275	 -0.085
 54.734	  0.225	 -0.085
 54.742	  0.145	 -0.085
 54.750	  0.035	 -0.065
 54.758	 -0.005	 -0.045
 54.766	 -0.065	 -0.055
 54.773	 -0.095	 -0.055
 54.781	 -0.125	 -0.055
 54.789	 -0.155	 -0.055
 54.797	 -0.165	 -0.055
 54.805	 -0.175	 -0.055
 54.812	 -0.185	 -0.055
 54.820	 -0.185	 -0.065
 54.828	 -0.165	 -0.065
 54.836	 -0.155	 -0.065
 54.844	 -0.145	 -0.065
 54.852	 -0.135	 -0.045
 54.859	 -0.145	 -0.045
 54.867	 -0.155	 -0.045
 54.875	 -0.135	 -0.045
 54.883	 -0.155	 -0.055
 54.891	 -0.145	 -0.065
 54.898	 -0.125	 -0.065
 54.906	 -0.135	 -0.075
 54.914	 -0.135	 -0.075
 54.922	 -0.145	 -0.085
 54.930	 -0.165	 -0.075
 54.938	 -0.165	 -0.075
 54.945	 -0.175	 -0.085
 54.953	 -0.175	 -0.085
 54.961	 -0.185	 -0.085
 54.969	 -0.175	 -0.075
 54.977	 -0.165	 -0.075
 54.984	 -0.165	 -0.085
 54.992	 -0.165	 -0.085
 55.000	 -0.125	 -0.045
 55.008	 -0.105	 -0.025
 55.016	 -0.075	 -0.045
 55.023	 -0.035	 -0.045
 55.031	 -0.005	 -0.055
 55.039	 -0.045	 -0.065
 55.047	 -0.075	 -0.085
 55.055	 -0.085	 -0.095
 55.062	 -0.135	 -0.095
 55.070	 -0.145	 -0.105
 55.078	 -0.185	 -0.105
 55.086	 -0.185	 -0.105
 55.094	 -0.165	 -0.105
 55.102	 -0.185	 -0.105
 55.109	 -0.175	 -0.105
 55.117	 -0.165	 -0.105
 55.125	 -0.185	 -0.095
 55.133	 -0.155	 -0.095
 55.141	 -0.145	 -0.095
 55.148	 -0.135	 -0.095
 55.156	 -0.115	  0.095
 55.164	  0.135	  0.185
 55.172	  0.525	 -0.195
 55.180	  1.205	 -0.975
 55.188	  1.205	 -1.095
 55.195	  0.165	 -0.735
 55.203	 -0.195	 -0.315
 55.211	 -0.155	 -0.125
 55.219	 -0.115	 -0.075
 55.227	 -0.135	 -0.045
 55.234	 -0.155	 -0.035
 55.242	 -0.145	 -0.035
 55.250	 -0.155	 -0.035
 55.258	 -0.115	 -0.025
 55.266	 -0.135	 -0.015
 55.273	 -0.125	 -0.025
 55.281	 -0.105	 -0.015
 55.289	 -0.115	 -0.015
 55.297	 -0.095	 -0.025
 55.305	 -0.085	 -0.025
 55.312	 -0.095	 -0.015
 55.320	 -0.065	 -0.025
 55.328	 -0.055	 -0.025
 55.336	 -0.035	 -0.035
 55.344	  0.005	 -0.035
 55.352	  0.025	 -0.055
 55.359	  0.045	 -0.065
 55.367	  0.075	 -0.075
 55.375	  0.095	 -0.095
 55.383	  0.195	 -0.125
 55.391	  0.225	 -0.135
 55.398	  0.265	 -0.135
 55.406	  0.305	 -0.135
 55.414	  0.295	 -0.145
 55.422	  0.285	 -0.165
 55.430	  0.255	 -0.135
 55.438	  0.165	 -0.095
 55.445	  0.105	 -0.085
 55.453	  0.035	 -0.085
 55.461	 -0.035	 -0.065
 55.469	 -0.075	 -0.055
 55.477	 -0.115	 -0.055
 55.484	 -0.165	 -0.055
 55.492	 -0.155	 -0.055
 55.500	 -0.175	 -0.065
 55.508	 -0.175	 -0.075
 55.516	 -0.185	 -0.075
 55.523	 -0.165	 -0.065
 55.531	 -0.155	 -0.065
 55.539	 -0.175	 -0.045
 55.547	 -0.175	 -0.045
 55.555	 -0.155	 -0.035
 55.562	 -0.165	 -0.035
 55.570	 -0.175	 -0.035
 55.578	 -0.165	 -0.035
 55.586	 -0.175	 -0.025
 55.594	 -0.155	 -0.025
 55.602	 -0.155	 -0.025
 55.609	 -0.175	 -0.045
 55.617	 -0.185	 -0.045
 55.625	 -0.175	 -0.045
 55.633	 -0.175	 -0.045
 55.641	 -0.175	 -0.045
 55.648	 -0.175	 -0.055
 55.656	 -0.175	 -0.055
 55.664	 -0.165	 -0.055
 55.672	 -0.175	 -0.055
 55.680	 -0.165	 -0.055
 55.688	 -0.145	 -0.015
 55.695	 -0.125	 -0.015
 55.703	 -0.085	 -0.025
 55.711	 -0.035	 -0.035
 55.719	 -0.045	 -0.035
 55.727	 -0.085	 -0.045
 55.734	 -0.105	 -0.075
 55.742	 -0.115	 -0.075
 55.750	 -0.155	 -0.085
 55.758	 -0.195	 -0.095
 55.766	 -0.215	 -0.105
 55.773	 -0.205	 -0.105
 55.781	 -0.195	 -0.105
 55.789	 -0.215	 -0.095
 55.797	 -0.215	 -0.105
 55.805	 -0.205	 -0.105
 55.812	 -0.205	 -0.095
 55.820	 -0.195	 -0.095
 55.828	 -0.185	 -0.105
 55.836	 -0.165	 -0.095
 55.844	 -0.195	  0.045
 55.852	  0.065	  0.175
 55.859	  0.455	 -0.055
 55.867	  1.235	 -0.815
 55.875	  1.295	 -0.955
 55.883	 -0.095	 -0.675
 55.891	 -0.255	 -0.335
 55.898	 -0.175	 -0.135
 55.906	 -0.135	 -0.075
 55.914	 -0.155	 -0.045
 55.922	 -0.155	 -0.025
 55.930	 -0.165	 -0.015
 55.938	 -0.175	 -0.015
 55.945	 -0.145	 -0.015
 55.953	 -0.145	 -0.015
 55.961	 -0.135	 -0.005
 55.969	 -0.115	 -0.005
 55.977	 -0.115	 -0.005
 55.984	 -0.105	 -0.005
 55.992	 -0.095	 -0.015
 56.000	 -0.095	 -0.005
 56.008	 -0.065	 -0.015
 56.016	 -0.025	 -0.025
 56.023	 -0.015	 -0.005
 56.031	  0.025	 -0.015
 56.039	  0.045	 -0.025
 56.047	  0.065	 -0.035
 56.055	  0.115	 -0.045
 56.062	  0.145	 -0.055
 56.070	  0.205	 -0.055
 56.078	  0.255	 -0.075
 56.086	  0.275	 -0.085
 56.094	  0.305	 -0.085
 56.102	  0.305	 -0.095
 56.109	  0.265	 -0.095
 56.117	  0.225	 -0.085
 56.125	  0.125	 -0.075
 56.133	  0.045	 -0.055
 56.141	 -0.035	 -0.045
 56.148	 -0.105	 -0.025
 56.156	 -0.115	 -0.015
 56.164	 -0.185	 -0.015
 56.172	 -0.215	 -0.015
 56.180	 -0.225	 -0.025
 56.188	 -0.265	 -0.025
 56.195	 -0.245	 -0.025
 56.203	 -0.225	 -0.015
 56.211	 -0.235	 -0.025
 56.219	 -0.195	 -0.025
 56.227	 -0.205	 -0.015
 56.234	 -0.215	 -0.025
 56.242	 -0.205	 -0.015
 56.250	 -0.215	 -0.025
 56.258	 -0.185	 -0.015
 56.266	 -0.185	 -0.025
 56.273	 -0.175	 -0.025
 56.281	 -0.175	 -0.015
 56.289	 -0.165	 -0.025
 56.297	 -0.195	 -0.025
 56.305	 -0.175	 -0.025
 56.312	 -0.185	 -0.025
 56.320	 -0.175	 -0.025
 56.328	 -0.175	 -0.035
 56.336	 -0.145	 -0.015
 56.344	 -0.115	  0.005
 56.352	 -0.095	  0.005
 56.359	 -0.055	  0.015
 56.367	 -0.025	 -0.005
 56.375	 -0.035	 -0.015
 56.383	 -0.085	 -0.035
 56.391	 -0.115	 -0.055
 56.398	 -0.115	 -0.055
 56.406	 -0.115	 -0.055
 56.414	 -0.165	 -0.065
 56.422	 -0.215	 -0.085
 56.430	 -0.225	 -0.075
 56.438	 -0.235	 -0.085
 56.445	 -0.235	 -0.085
 56.453	 -0.215	 -0.085
 56.461	 -0.225	 -0.085
 56.469	 -0.225	 -0.075
 56.477	 -0.225	 -0.065
 56.484	 -0.205	 -0.075
 56.492	 -0.205	 -0.065
 56.500	 -0.215	 -0.035
 56.508	 -0.225	  0.205
 56.516	  0.155	  0.215
 56.523	  0.745	 -0.425
 56.531	  1.435	 -1.005
 56.539	  1.005	 -0.965
 56.547	 -0.195	 -0.475
 56.555	 -0.175	 -0.155
 56.562	 -0.145	 -0.055
 56.570	 -0.135	 -0.005
 56.578	 -0.155	  0.015
 56.586	 -0.165	  0.035
 56.594	 -0.145	  0.035
 56.602	 -0.155	  0.055
 56.609	 -0.165	  0.045
 56.617	 -0.155	  0.055
 56.625	 -0.145	  0.045
 56.633	 -0.145	  0.045
 56.641	 -0.135	  0.045
 56.648	 -0.115	  0.035
 56.656	 -0.065	  0.035
 56.664	 -0.055	  0.045
 56.672	 -0.045	  0.045
 56.680	 -0.045	  0.025
 56.688	 -0.025	  0.035
 56.695	  0.025	  0.015
 56.703	  0.065	  0.005
 56.711	  0.105	  0.015
 56.719	  0.165	 -0.005
 56.727	  0.205	 -0.015
 56.734	  0.225	 -0.035
 56.742	  0.265	 -0.055
 56.750	  0.285	 -0.065
 56.758	  0.315	 -0.065
 56.766	  0.305	 -0.075
 56.773	  0.285	 -0.065
 56.781	  0.215	 -0.055
 56.789	  0.125	 -0.045
 56.797	  0.035	 -0.035
 56.805	 -0.045	 -0.015
 56.812	 -0.095	 -0.025
 56.820	 -0.135	 -0.015
 56.828	 -0.155	 -0.015
 56.836	 -0.165	 -0.025
 56.844	 -0.165	 -0.015
 56.852	 -0.165	 -0.015
 56.859	 -0.175	 -0.015
 56.867	 -0.185	 -0.015
 56.875	 -0.175	 -0.025
 56.883	 -0.175	 -0.015
 56.891	 -0.165	 -0.025
 56.898	 -0.165	 -0.025
 56.906	 -0.145	 -0.015
 56.914	 -0.155	 -0.015
 56.922	 -0.145	 -0.015
 56.930	 -0.145	 -0.015
 56.938	 -0.165	 -0.015
 56.945	 -0.155	 -0.015
 56.953	 -0.135	 -0.025
 56.961	 -0.145	 -0.025
 56.969	 -0.125	 -0.025
 56.977	 -0.135	 -0.025
 56.984	 -0.145	 -0.025
 56.992	 -0.145	 -0.025
 57.000	 -0.165	 -0.025
 57.008	 -0.155	 -0.025
 57.016	 -0.115	 -0.015
 57.023	 -0.075	  0.015
 57.031	 -0.045	  0.025
 57.039	 -0.015	  0.025
 57.047	  0.025	  0.005
 57.055	  0.005	  0.005
 57.062	 -0.055	 -0.005
 57.070	 -0.045	 -0.025
 57.078	 -0.055	 -0.015
 57.086	 -0.085	 -0.035
 57.094	 -0.125	 -0.045
 57.102	 -0.145	 -0.045
 57.109	 -0.145	 -0.055
 57.117	 -0.145	 -0.075
 57.125	 -0.175	 -0.075
 57.133	 -0.155	 -0.065
 57.141	 -0.135	 -0.065
 57.148	 -0.145	 -0.065
 57.156	 -0.115	 -0.065
 57.164	 -0.115	 -0.065
 57.172	 -0.115	 -0.065
 57.180	 -0.125	  0.145
 57.188	  0.165	  0.185
 57.195	  0.585	 -0.215
 57.203	  1.275	 -0.975
 57.211	  1.255	 -1.065
 57.219	  0.165	 -0.675
 57.227	 -0.125	 -0.275
 57.234	 -0.085	 -0.125
 57.242	 -0.055	 -0.055
 57.250	 -0.095	 -0.035
 57.258	 -0.105	 -0.015
 57.266	 -0.085	 -0.005
 57.273	 -0.085	  0.005
 57.281	 -0.055	  0.005
 57.289	 -0.075	  0.005
 57.297	 -0.055	  0.005
 57.305	 -0.035	  0.005
 57.312	 -0.075	  0.005
 57.320	 -0.005	 -0.005
 57.328	  0.005	 -0.005
 57.336	  0.025	 -0.005
 57.344	  0.045	  0.005
 57.352	  0.055	 -0.005
 57.359	  0.065	 -0.015
 57.367	  0.095	 -0.015
 57.375	  0.105	 -0.015
 57.383	  0.155	 -0.025
 57.391	  0.185	 -0.045
 57.398	  0.235	 -0.045
 57.406	  0.295	 -0.055
 57.414	  0.315	 -0.065
 57.422	  0.355	 -0.075
 57.430	  0.365	 -0.085
 57.438	  0.375	 -0.085
 57.445	  0.365	 -0.075
 57.453	  0.305	 -0.055
 57.461	  0.225	 -0.045
 57.469	  0.165	 -0.025
 57.477	  0.065	 -0.005
 57.484	 -0.005	 -0.005
 57.492	 -0.065	  0.005
 57.500	 -0.105	  0.005
 57.508	 -0.105	  0.005
 57.516	 -0.125	 -0.005
 57.523	 -0.125	 -0.005
 57.531	 -0.105	 -0.005
 57.539	 -0.115	 -0.005
 57.547	 -0.105	 -0.015
 57.555	 -0.115	 -0.015
 57.562	 -0.125	 -0.015
 57.570	 -0.115	 -0.025
 57.578	 -0.105	 -0.025
 57.586	 -0.105	 -0.015
 57.594	 -0.095	 -0.015
 57.602	 -0.105	 -0.015
 57.609	 -0.115	 -0.015
 57.617	 -0.115	 -0.025
 57.625	 -0.145	 -0.025
 57.633	 -0.125	 -0.025
 57.641	 -0.115	 -0.025
 57.648	 -0.135	 -0.035
 57.656	 -0.115	 -0.045
 57.664	 -0.135	 -0.035
 57.672	 -0.135	 -0.045
 57.680	 -0.155	 -0.055
 57.688	 -0.155	 -0.065
 57.695	 -0.155	 -0.065
 57.703	 -0.145	 -0.075
 57.711	 -0.125	 -0.055
 57.719	 -0.095	 -0.015
 57.727	 -0.075	 -0.005
 57.734	 -0.055	 -0.025
 57.742	 -0.025	 -0.025
 57.750	 -0.035	 -0.045
 57.758	 -0.065	 -0.055
 57.766	 -0.075	 -0.075
 57.773	 -0.085	 -0.065
 57.781	 -0.115	 -0.085
 57.789	 -0.165	 -0.085
 57.797	 -0.195	 -0.095
 57.805	 -0.185	 -0.095
 57.812	 -0.195	 -0.105
 57.820	 -0.185	 -0.105
 57.828	 -0.175	 -0.095
 57.836	 -0.175	 -0.095
 57.844	 -0.155	 -0.095
 57.852	 -0.155	 -0.095
 57.859	 -0.145	 -0.095
 57.867	 -0.135	 -0.095
 57.875	 -0.195	  0.065
 57.883	  0.035	  0.165
 57.891	  0.365	 -0.025
 57.898	  1.075	 -0.765
 57.906	  1.315	 -0.965
 57.914	  0.145	 -0.795
 57.922	 -0.305	 -0.415
 57.930	 -0.155	 -0.185
 57.938	 -0.145	 -0.105
 57.945	 -0.155	 -0.055
 57.953	 -0.165	 -0.045
 57.961	 -0.155	 -0.035
 57.969	 -0.125	 -0.025
 57.977	 -0.135	 -0.025
 57.984	 -0.145	 -0.025
 57.992	 -0.145	 -0.035
 58.000	 -0.145	 -0.035
 58.008	 -0.135	 -0.035
 58.016	 -0.105	 -0.035
 58.023	 -0.105	 -0.035
 58.031	 -0.085	 -0.035
 58.039	 -0.045	 -0.035
 58.047	 -0.055	 -0.035
 58.055	 -0.035	 -0.045
 58.062	 -0.015	 -0.045
 58.070	  0.045	 -0.055
 58.078	  0.065	 -0.055
 58.086	  0.105	 -0.075
 58.094	  0.165	 -0.085
 58.102	  0.195	 -0.085
 58.109	  0.225	 -0.105
 58.117	  0.265	 -0.125
 58.125	  0.275	 -0.125
 58.133	  0.315	 -0.125
 58.141	  0.285	 -0.135
 58.148	  0.205	 -0.135
 58.156	  0.165	 -0.115
 58.164	  0.055	 -0.095
 58.172	  0.005	 -0.085
 58.180	 -0.095	 -0.075
 58.188	 -0.125	 -0.075
 58.195	 -0.175	 -0.075
 58.203	 -0.155	 -0.075
 58.211	 -0.195	 -0.075
 58.219	 -0.165	 -0.085
 58.227	 -0.205	 -0.075
 58.234	 -0.195	 -0.085
 58.242	 -0.185	 -0.085
 58.250	 -0.195	 -0.085
 58.258	 -0.175	 -0.085
 58.266	 -0.165	 -0.085
 58.273	 -0.185	 -0.085
 58.281	 -0.145	 -0.075
 58.289	 -0.135	 -0.075
 58.297	 -0.135	 -0.085
 58.305	 -0.145	 -0.085
 58.312	 -0.165	 -0.095
 58.320	 -0.175	 -0.095
 58.328	 -0.135	 -0.105
 58.336	 -0.125	 -0.105
 58.344	 -0.125	 -0.105
 58.352	 -0.125	 -0.105
 58.359	 -0.135	 -0.075
 58.367	 -0.095	 -0.055
 58.375	 -0.085	 -0.055
 58.383	 -0.035	 -0.065
 58.391	 -0.005	 -0.085
 58.398	 -0.025	 -0.095
 58.406	 -0.005	 -0.095
 58.414	 -0.055	 -0.105
 58.422	 -0.075	 -0.105
 58.430	 -0.125	 -0.115
 58.438	 -0.195	 -0.145
 58.445	 -0.155	 -0.135
 58.453	 -0.215	 -0.145
 58.461	 -0.175	 -0.145
 58.469	 -0.175	 -0.145
 58.477	 -0.175	 -0.145
 58.484	 -0.195	 -0.155
 58.492	 -0.185	 -0.145
 58.500	 -0.195	 -0.135
 58.508	 -0.125	 -0.145
 58.516	 -0.175	 -0.135
 58.523	 -0.185	 -0.085
 58.531	 -0.085	  0.085
 58.539	  0.195	  0.095
 58.547	  0.985	 -0.465
 58.555	  1.465	 -0.775
 58.562	  0.645	 -0.845
 58.570	 -0.375	 -0.515
 58.578	 -0.185	 -0.285
 58.586	 -0.145	 -0.205
 58.594	 -0.105	 -0.145
 58.602	 -0.125	 -0.105
 58.609	 -0.155	 -0.105
 58.617	 -0.135	 -0.095
 58.625	 -0.165	 -0.095
 58.633	 -0.165	 -0.085
 58.641	 -0.105	 -0.085
 58.648	 -0.075	 -0.095
 58.656	 -0.085	 -0.085
 58.664	 -0.065	 -0.085
 58.672	 -0.095	 -0.085
 58.680	 -0.075	 -0.085
 58.688	 -0.055	 -0.095
 58.695	 -0.045	 -0.095
 58.703	 -0.015	 -0.095
 58.711	  0.055	 -0.095
 58.719	  0.035	 -0.105
 58.727	  0.095	 -0.105
 58.734	  0.155	 -0.115
 58.742	  0.185	 -0.125
 58.750	  0.245	 -0.135
 58.758	  0.295	 -0.165
 58.766	  0.355	 -0.165
 58.773	  0.345	 -0.185
 58.781	  0.405	 -0.175
 58.789	  0.375	 -0.175
 58.797	  0.315	 -0.175
 58.805	  0.195	 -0.165
 58.812	  0.075	 -0.155
 58.820	 -0.015	 -0.125
 58.828	 -0.075	 -0.115
 58.836	 -0.115	 -0.105
 58.844	 -0.155	 -0.095
 58.852	 -0.175	 -0.105
 58.859	 -0.195	 -0.095
 58.867	 -0.205	 -0.115
 58.875	 -0.245	 -0.095
 58.883	 -0.255	 -0.105
 58.891	 -0.235	 -0.115
 58.898	 -0.195	 -0.105
 58.906	 -0.225	 -0.095
 58.914	 -0.215	 -0.095
 58.922	 -0.215	 -0.105
 58.930	 -0.195	 -0.105
 58.938	 -0.225	 -0.105
 58.945	 -0.195	 -0.095
 58.953	 -0.175	 -0.105
 58.961	 -0.165	 -0.105
 58.969	 -0.155	 -0.095
 58.977	 -0.175	 -0.095
 58.984	 -0.165	 -0.085
 58.992	 -0.125	 -0.095
 59.000	 -0.165	 -0.065
 59.008	 -0.065	 -0.075
 59.016	 -0.055	 -0.065
 59.023	 -0.065	 -0.055
 59.031	 -0.005	 -0.075
 59.039	 -0.015	 -0.085
 59.047	 -0.115	 -0.095
 59.055	 -0.105	 -0.115
 59.062	 -0.135	 -0.095
 59.070	 -0.165	 -0.115
 59.078	 -0.255	 -0.145
 59.086	 -0.255	 -0.125
 59.094	 -0.195	 -0.125
 59.102	 -0.215	 -0.155
 59.109	 -0.215	 -0.145
 59.117	 -0.185	 -0.105
 59.125	 -0.235	 -0.145
 59.133	 -0.175	 -0.145
 59.141	 -0.205	 -0.135
 59.148	 -0.175	 -0.135
 59.156	 -0.255	 -0.085
 59.164	 -0.195	  0.105
 59.172	  0.105	  0.115
 59.180	  0.865	 -0.385
 59.188	  1.465	 -0.725
 59.195	  0.745	 -0.795
 59.203	 -0.395	 -0.485
 59.211	 -0.225	 -0.245
 59.219	 -0.165	 -0.145
 59.227	 -0.165	 -0.105
 59.234	 -0.195	 -0.075
 59.242	 -0.185	 -0.065
 59.250	 -0.195	 -0.055
 59.258	 -0.175	 -0.055
 59.266	 -0.175	 -0.055
 59.273	 -0.165	 -0.045
 59.281	 -0.145	 -0.035
 59.289	 -0.185	 -0.035
 59.297	 -0.135	 -0.035
 59.305	 -0.135	 -0.045
 59.312	 -0.145	 -0.035
 59.320	 -0.085	 -0.045
 59.328	 -0.095	 -0.045
 59.336	 -0.065	 -0.045
 59.344	 -0.025	 -0.035
 59.352	 -0.005	 -0.035
 59.359	  0.055	 -0.045
 59.367	  0.095	 -0.045
 59.375	  0.145	 -0.055
 59.383	  0.215	 -0.055
 59.391	  0.255	 -0.075
 59.398	  0.285	 -0.095
 59.406	  0.315	 -0.095
 59.414	  0.345	 -0.095
 59.422	  0.295	 -0.105
 59.430	  0.215	 -0.095
 59.438	  0.105	 -0.085
 59.445	  0.055	 -0.075
 59.453	 -0.055	 -0.065
 59.461	 -0.135	 -0.045
 59.469	 -0.155	 -0.045
 59.477	 -0.215	 -0.045
 59.484	 -0.225	 -0.055
 59.492	 -0.235	 -0.035
 59.500	 -0.255	 -0.035
 59.508	 -0.235	 -0.045
 59.516	 -0.235	 -0.055
 59.523	 -0.225	 -0.045
 59.531	 -0.235	 -0.025
 59.539	 -0.245	 -0.035
 59.547	 -0.235	 -0.045
 59.555	 -0.215	 -0.025
 59.562	 -0.225	 -0.025
 59.570	 -0.215	 -0.055
 59.578	 -0.215	 -0.045
 59.586	 -0.225	  0.015
 59.594	 -0.165	 -0.005
 59.602	 -0.145	 -0.085
 59.609	 -0.165	 -0.075
 59.617	 -0.155	 -0.025
 59.625	 -0.145	 -0.015
 59.633	 -0.095	 -0.005
 59.641	 -0.065	 -0.005
 59.648	 -0.045	 -0.005
 59.656	 -0.025	 -0.015
 59.664	 -0.065	 -0.015
 59.672	 -0.085	 -0.035
 59.680	 -0.115	 -0.045
 59.688	 -0.125	 -0.055
 59.695	 -0.145	 -0.075
 59.703	 -0.205	 -0.075
 59.711	 -0.215	 -0.085
 59.719	 -0.205	 -0.075
 59.727	 -0.215	 -0.085
 59.734	 -0.195	 -0.085
 59.742	 -0.215	 -0.085
 59.750	 -0.245	 -0.075
 59.758	 -0.205	 -0.085
 59.766	 -0.195	 -0.085
 59.773	 -0.175	 -0.075
 59.781	 -0.155	 -0.065
 59.789	 -0.245	  0.075
 59.797	  0.005	  0.125
 59.805	  0.395	 -0.085
 59.812	  1.155	 -0.645
 59.820	  1.365	 -0.755
 59.828	 -0.035	 -0.575
 59.836	 -0.205	 -0.315
 59.844	 -0.125	 -0.135
 59.852	 -0.115	 -0.085
 59.859	 -0.125	 -0.055
 59.867	 -0.135	 -0.045
 59.875	 -0.155	 -0.035
 59.883	 -0.155	 -0.035
 59.891	 -0.125	 -0.035
 59.898	 -0.115	 -0.025
 59.906	 -0.075	 -0.025
 59.914	 -0.095	 -0.025
 59.922	 -0.085	 -0.035
 59.930	 -0.115	 -0.015
 59.938	 -0.085	 -0.025
 59.945	 -0.065	 -0.055
 59.953	 -0.045	 -0.015
 59.961	 -0.025	 -0.045
 59.969	  0.025	 -0.045
 59.977	  0.025	 -0.015
 59.984	  0.045	 -0.035
 59.992	  0.115	 -0.045
